##TITLE=ETHYL VINYL ETHER
##JCAMP-DX=4.24
##DATA TYPE=INFRARED SPECTRUM
##CLASS=COBLENTZ III
##ORIGIN=WESTERN REGIONAL RES. USDA
##OWNER=COBLENTZ SOCIETY
Collection (C) 2018 copyright by the U.S. Secretary of Commerce
on behalf of the United States of America. All rights reserved.
##DATE=1964/05/21
##NAMES=1-ethoxyethylene
##CAS REGISTRY NO=109-92-2
##MOLFORM=C4 H8 O
##BP=33.5 C
##SOURCE REFERENCE=COBLENTZ NO. 6171
##$NIST SOURCE=COBLENTZ
##$NIST IMAGE=cob6171
##SPECTROMETER/DATA SYSTEM=BECKMAN IR-7 (GRATING)
##INSTRUMENT PARAMETERS=GRATING CHANGES AT 3000, 2200, 1150 CM^-^1
##STATE=SOLUTION (10% IN CCl4 FOR 4000-1340 CM^-^1, 10% IN CS2 FOR 1340-600 CM^-^1)
##PATH LENGTH=0.011 CM, 0.010 CM
##SAMPLING PROCEDURE=TRANSMISSION
##RESOLUTION=4
##DATA PROCESSING=DIGITIZED BY NIST FROM HARD COPY (FROM TWO SEGMENTS)
##XUNITS=1/CM
##YUNITS=TRANSMITTANCE
##XFACTOR=1.000000
##YFACTOR=1
##DELTAX=0.661579
##FIRSTX=600.102
##LASTX=4009.22
##FIRSTY=0.877
##MAXX=4009.22
##MINX=600.102
##MAXY=0.877
##MINY=0
##NPOINTS=5154
##XYDATA=(X++(Y..Y))
600.102000 0.8770 0.8770 0.8760 0.8760 0.8760
603.409893 0.8750 0.8750 0.8750 0.8750 0.8750
606.717786 0.8750 0.8750 0.8740 0.8740 0.8740
610.025679 0.8740 0.8740 0.8740 0.8740 0.8740
613.333572 0.8730 0.8720 0.8710 0.8660 0.8640
616.641465 0.8600 0.8580 0.8590 0.8610 0.8630
619.949358 0.8640 0.8660 0.8660 0.8650 0.8650
623.257251 0.8640 0.8640 0.8640 0.8660 0.8660
626.565144 0.8660 0.8660 0.8650 0.8650 0.8640
629.873038 0.8640 0.8630 0.8620 0.8620 0.8600
633.180931 0.8600 0.8590 0.8580 0.8560 0.8550
636.488824 0.8540 0.8520 0.8510 0.8500 0.8480
639.796717 0.8470 0.8470 0.8460 0.8460 0.8430
643.104610 0.8430 0.8410 0.8410 0.8390 0.8370
646.412503 0.8350 0.8310 0.8310 0.8300 0.8300
649.720396 0.8300 0.8300 0.8300 0.8310 0.8310
653.028289 0.8330 0.8330 0.8350 0.8370 0.8390
656.336182 0.8410 0.8430 0.8440 0.8450 0.8460
659.644075 0.8460 0.8480 0.8480 0.8490 0.8510
662.951968 0.8520 0.8530 0.8540 0.8530 0.8520
666.259861 0.8500 0.8490 0.8480 0.8460 0.8440
669.567754 0.8430 0.8420 0.8400 0.8380 0.8360
672.875647 0.8350 0.8350 0.8350 0.8360 0.8390
676.183540 0.8410 0.8420 0.8420 0.8420 0.8410
679.491433 0.8400 0.8390 0.8370 0.8360 0.8330
682.799326 0.8310 0.8290 0.8250 0.8210 0.8170
686.107220 0.8130 0.8080 0.8020 0.7960 0.7890
689.415113 0.7810 0.7740 0.7690 0.7640 0.7600
692.723006 0.7560 0.7510 0.7500 0.7490 0.7400
696.030899 0.7400 0.7390 0.7390 0.7410 0.7559
699.338792 0.7670 0.7770 0.7860 0.7920 0.7980
702.646685 0.8030 0.8070 0.8100 0.8120 0.8170
705.954578 0.8190 0.8230 0.8280 0.8300 0.8320
709.262471 0.8350 0.8340 0.8360 0.8380 0.8400
712.570364 0.8420 0.8430 0.8440 0.8470 0.8480
715.878257 0.8500 0.8520 0.8530 0.8540 0.8560
719.186150 0.8570 0.8580 0.8580 0.8580 0.8590
722.494043 0.8600 0.8600 0.8610 0.8610 0.8610
725.801936 0.8620 0.8620 0.8620 0.8620 0.8630
729.109829 0.8630 0.8630 0.8620 0.8630 0.8630
732.417722 0.8640 0.8640 0.8640 0.8640 0.8640
735.725615 0.8640 0.8640 0.8640 0.8630 0.8620
739.033508 0.8620 0.8610 0.8600 0.8600 0.8590
742.341402 0.8580 0.8580 0.8580 0.8580 0.8570
745.649295 0.8560 0.8540 0.8520 0.8500 0.8480
748.957188 0.8460 0.8460 0.8450 0.8440 0.8440
752.265081 0.8430 0.8420 0.8410 0.8400 0.8390
755.572974 0.8370 0.8350 0.8330 0.8320 0.8310
758.880867 0.8290 0.8290 0.8270 0.8270 0.8250
762.188760 0.8220 0.8190 0.8170 0.8150 0.8130
765.496653 0.8120 0.8100 0.8080 0.8040 0.8000
768.804546 0.7980 0.7950 0.7920 0.7900 0.7880
772.112439 0.7840 0.7810 0.7770 0.7720 0.7690
775.420332 0.7640 0.7570 0.7530 0.7480 0.7400
778.728225 0.7370 0.7200 0.7090 0.7010 0.6940
782.036118 0.6860 0.6720 0.6670 0.6540 0.6331
785.344011 0.6310 0.6250 0.6180 0.6020 0.5870
788.651904 0.5710 0.5580 0.5371 0.5171 0.4911
791.959797 0.4710 0.4510 0.4410 0.4300 0.4080
795.267690 0.3890 0.3600 0.3440 0.3350 0.3101
798.575584 0.2850 0.2520 0.2160 0.1820 0.1510
801.883477 0.1410 0.1300 0.1041 0.0771 0.0601
805.191370 0.0510 0.0460 0.0420 0.0380 0.0310
808.499263 0.0270 0.0260 0.0250 0.0260 0.0280
811.807156 0.0310 0.0360 0.0420 0.0490 0.0560
815.115049 0.0650 0.0750 0.0910 0.1020 0.1110
818.422942 0.1190 0.1270 0.1500 0.1580 0.1690
821.730835 0.1830 0.1910 0.1970 0.1990 0.2000
825.038728 0.2010 0.2030 0.2080 0.2110 0.2170
828.346621 0.2240 0.2300 0.2370 0.2470 0.2550
831.654514 0.2640 0.2730 0.2780 0.2810 0.2880
834.962407 0.2950 0.3060 0.3100 0.3110 0.3120
838.270300 0.3130 0.3130 0.3110 0.3020 0.2990
841.578193 0.2950 0.2830 0.2740 0.2670 0.2540
844.886086 0.2480 0.2430 0.2390 0.2380 0.2370
848.193979 0.2380 0.2550 0.2800 0.3219 0.3479
851.501872 0.3720 0.3950 0.4120 0.4210 0.4540
854.809766 0.4670 0.4800 0.4920 0.5030 0.5140
858.117659 0.5220 0.5390 0.5530 0.5650 0.5730
861.425552 0.5810 0.5870 0.6000 0.6100 0.6170
864.733445 0.6230 0.6290 0.6360 0.6430 0.6510
868.041338 0.6580 0.6640 0.6700 0.6760 0.6800
871.349231 0.6820 0.6870 0.6900 0.6950 0.7000
874.657124 0.7050 0.7050 0.7070 0.7110 0.7170
877.965017 0.7220 0.7280 0.7340 0.7400 0.7440
881.272910 0.7460 0.7530 0.7580 0.7600 0.7640
884.580803 0.7690 0.7730 0.7770 0.7800 0.7820
887.888696 0.7860 0.7890 0.7920 0.7950 0.7970
891.196589 0.7990 0.8000 0.8020 0.8030 0.8040
894.504482 0.8060 0.8070 0.8080 0.8100 0.8110
897.812375 0.8120 0.8130 0.8130 0.8140 0.8140
901.120268 0.8140 0.8140 0.8140 0.8140 0.8140
904.428161 0.8130 0.8130 0.8130 0.8130 0.8120
907.736054 0.8110 0.8100 0.8090 0.8080 0.8070
911.043948 0.8060 0.8040 0.8030 0.8020 0.8000
914.351841 0.7980 0.7960 0.7940 0.7920 0.7900
917.659734 0.7870 0.7840 0.7810 0.7770 0.7730
920.967627 0.7700 0.7660 0.7620 0.7570 0.7510
924.275520 0.7480 0.7440 0.7400 0.7340 0.7130
927.583413 0.7050 0.6970 0.6840 0.6700 0.6551
930.891306 0.6420 0.6330 0.6240 0.6120 0.5990
934.199199 0.5701 0.5461 0.5241 0.5001 0.4731
937.507092 0.4550 0.4370 0.4090 0.3910 0.3730
940.814985 0.3650 0.3470 0.3460 0.3470 0.3620
944.122878 0.3770 0.3890 0.3930 0.4050 0.4140
947.430771 0.4140 0.4150 0.4140 0.4130 0.3980
950.738664 0.3790 0.3600 0.3390 0.3190 0.3020
954.046557 0.2940 0.2860 0.2571 0.2131 0.1821
957.354450 0.1660 0.1490 0.1300 0.1000 0.0770
960.662343 0.0770 0.0750 0.0750 0.0740 0.0750
963.970236 0.0750 0.0770 0.0800 0.0830 0.0890
967.278130 0.0940 0.1140 0.1559 0.1849 0.2119
970.586023 0.3061 0.3430 0.3650 0.3790 0.3920
973.893916 0.4070 0.4679 0.4940 0.5130 0.5270
977.201809 0.5410 0.5590 0.5840 0.6040 0.6210
980.509702 0.6330 0.6450 0.6500 0.6550 0.6610
983.817595 0.6660 0.6720 0.6760 0.6810 0.6840
987.125488 0.6870 0.6900 0.6950 0.6970 0.6990
990.433381 0.6990 0.7000 0.7010 0.7020 0.7030
993.741274 0.7040 0.7050 0.7060 0.7070 0.7080
997.049167 0.7090 0.7100 0.7110 0.7110 0.7110
1000.357060 0.7110 0.7110 0.7100 0.7100 0.7090
1003.664953 0.7090 0.7070 0.7040 0.7010 0.6960
1006.972846 0.6910 0.6880 0.6830 0.6760 0.6690
1010.280739 0.6610 0.6530 0.6450 0.6370 0.6290
1013.588632 0.6200 0.6060 0.5980 0.5910 0.5731
1016.896525 0.5550 0.5360 0.5180 0.5000 0.4640
1020.204418 0.4490 0.4350 0.4121 0.3931 0.3790
1023.512311 0.3670 0.3580 0.3490 0.3400 0.3290
1026.820205 0.3200 0.3070 0.2990 0.2900 0.2710
1030.128098 0.2520 0.2320 0.2130 0.1950 0.1810
1033.435991 0.1700 0.1640 0.1620 0.1580 0.1560
1036.743884 0.1560 0.1560 0.1630 0.1720 0.1850
1040.051777 0.1970 0.2090 0.2250 0.2420 0.2570
1043.359670 0.2730 0.3040 0.3190 0.3340 0.3490
1046.667563 0.3650 0.3800 0.3960 0.4120 0.4618
1049.975456 0.4790 0.4910 0.5000 0.5070 0.5110
1053.283349 0.5150 0.5190 0.5200 0.5210 0.5220
1056.591242 0.5210 0.5150 0.5090 0.5050 0.4960
1059.899135 0.4790 0.4590 0.4390 0.4330 0.4180
1063.207028 0.3960 0.3720 0.3490 0.3300 0.3170
1066.514921 0.2870 0.2570 0.2460 0.2400 0.2400
1069.822814 0.2421 0.3190 0.3480 0.3700 0.3900
1073.130707 0.4070 0.4230 0.4759 0.4940 0.5139
1076.438600 0.5290 0.5420 0.5550 0.5670 0.5800
1079.746493 0.5900 0.6000 0.6000 0.6000 0.6000
1083.054387 0.6000 0.5990 0.5930 0.5850 0.5780
1086.362280 0.5710 0.5630 0.5560 0.5480 0.5400
1089.670173 0.5330 0.5250 0.5200 0.5120 0.5040
1092.978066 0.4940 0.4850 0.4750 0.4660 0.4570
1096.285959 0.4530 0.4490 0.4430 0.4380 0.4350
1099.593852 0.4240 0.4160 0.4100 0.4060 0.4020
1102.901745 0.3980 0.3910 0.3830 0.3720 0.3560
1106.209638 0.3340 0.3070 0.2900 0.2730 0.2301
1109.517531 0.1789 0.1510 0.1340 0.1160 0.1020
1112.825424 0.0750 0.0730 0.0730 0.0740 0.0750
1116.133317 0.0840 0.1050 0.1240 0.1550 0.1680
1119.441210 0.1790 0.1890 0.1970 0.2050 0.2110
1122.749103 0.2150 0.2180 0.2180 0.2190 0.2210
1126.056996 0.2240 0.2290 0.2370 0.2500 0.2670
1129.364889 0.3210 0.3500 0.3780 0.3810 0.4500
1132.672782 0.4570 0.4610 0.4670 0.4899 0.5010
1135.980675 0.5070 0.5130 0.5230 0.5380 0.5490
1139.288569 0.5570 0.5620 0.5660 0.5690 0.5710
1142.596462 0.5730 0.5750 0.5770 0.5770 0.5760
1145.904355 0.5730 0.5680 0.5610 0.5530 0.5440
1149.212248 0.5330 0.5230 0.5120 0.5010 0.4920
1152.520141 0.4820 0.4740 0.4680 0.4630 0.4600
1155.828034 0.4590 0.4580 0.4570 0.4580 0.4590
1159.135927 0.4650 0.4720 0.4760 0.4800 0.4880
1162.443820 0.4940 0.4940 0.4930 0.4920 0.4920
1165.751713 0.4900 0.4870 0.4830 0.4780 0.4720
1169.059606 0.4650 0.4570 0.4530 0.4480 0.4390
1172.367499 0.4290 0.4180 0.4070 0.3950 0.3830
1175.675392 0.3700 0.3560 0.3430 0.3290 0.3140
1178.983285 0.3070 0.2990 0.2650 0.2341 0.2071
1182.291178 0.1830 0.1610 0.1520 0.1420 0.1250
1185.599071 0.1100 0.0980 0.0870 0.0770 0.0680
1188.906964 0.0610 0.0550 0.0490 0.0430 0.0380
1192.214857 0.0320 0.0270 0.0210 0.0140 0.0060
1195.522751 0.0050 0.0000 0.0000 0.0000 0.0000
1198.830644 0.0000 0.0000 0.0000 0.0000 0.0000
1202.138537 0.0000 0.0000 0.0000 0.0000 0.0000
1205.446430 0.0000 0.0000 0.0050 0.0070 0.0110
1208.754323 0.0160 0.0230 0.0320 0.0430 0.0550
1212.062216 0.0670 0.0820 0.0970 0.1130 0.1290
1215.370109 0.1640 0.1820 0.2010 0.2190 0.2370
1218.678002 0.2550 0.3199 0.3480 0.3739 0.3969
1221.985895 0.4180 0.4540 0.4700 0.4860 0.5000
1225.293788 0.5130 0.5260 0.5400 0.5510 0.5620
1228.601681 0.5700 0.5750 0.5840 0.5850 0.6080
1231.909574 0.6200 0.6290 0.6330 0.6360 0.6430
1235.217467 0.6500 0.6560 0.6620 0.6680 0.6740
1238.525360 0.6790 0.6840 0.6890 0.6940 0.6970
1241.833253 0.7000 0.7030 0.7060 0.7090 0.7120
1245.141146 0.7150 0.7180 0.7200 0.7240 0.7260
1248.449039 0.7300 0.7320 0.7360 0.7380 0.7400
1251.756933 0.7410 0.7430 0.7430 0.7440 0.7460
1255.064826 0.7480 0.7480 0.7500 0.7500 0.7500
1258.372719 0.7500 0.7500 0.7500 0.7500 0.7500
1261.680612 0.7500 0.7500 0.7500 0.7500 0.7500
1264.988505 0.7500 0.7500 0.7480 0.7460 0.7440
1268.296398 0.7410 0.7380 0.7340 0.7310 0.7300
1271.604291 0.7290 0.7280 0.7280 0.7280 0.7280
1274.912184 0.7280 0.7270 0.7270 0.7260 0.7250
1278.220077 0.7240 0.7200 0.7150 0.7120 0.7080
1281.527970 0.7040 0.6990 0.6950 0.6910 0.6850
1284.835863 0.6790 0.6720 0.6640 0.6560 0.6460
1288.143756 0.6350 0.6230 0.6080 0.6000 0.5930
1291.451649 0.5790 0.5770 0.5770 0.5770 0.5790
1294.759542 0.6130 0.6230 0.6330 0.6340 0.6350
1298.067435 0.6350 0.6330 0.6150 0.6070 0.5980
1301.375328 0.5830 0.5690 0.5560 0.5440 0.5320
1304.683221 0.5210 0.4780 0.4530 0.4280 0.3891
1307.991115 0.3629 0.3130 0.2990 0.2840 0.2540
1311.299008 0.2240 0.2050 0.1581 0.1101 0.0611
1314.606901 0.0310 0.0060 0.0050 0.0060 0.0070
1317.914794 0.0310 0.1029 0.1659 0.2428 0.2629
1321.222687 0.4150 0.4221 0.4550 0.4740 0.4930
1324.530580 0.5140 0.5360 0.5600 0.6109 0.6240
1327.838473 0.6350 0.6360 0.6480 0.6600 0.6720
1331.146366 0.6750 0.6790 0.6820 0.6880 0.6950
1334.454259 0.6990 0.7030 0.7050 0.7070 0.7080
1337.762152 0.7090 0.7090 0.7090 0.7100 0.7110
1341.070045 0.7110 0.7100 0.7100 0.7090 0.7090
1344.377938 0.7080 0.7080 0.7030 0.7010 0.6990
1347.685831 0.6960 0.6930 0.6900 0.6740 0.6580
1350.993724 0.6420 0.6260 0.6100 0.6020 0.5940
1354.301617 0.5790 0.5630 0.5470 0.5310 0.5150
1357.609510 0.5010 0.5000 0.5010 0.5290 0.5560
1360.917403 0.6370 0.6420 0.6460 0.6470 0.6480
1364.225297 0.6490 0.6490 0.6500 0.6490 0.6470
1367.533190 0.6410 0.6370 0.6260 0.6090 0.6120
1370.841083 0.6030 0.5940 0.5850 0.5581 0.5251
1374.148976 0.4889 0.4510 0.4320 0.4120 0.3750
1377.456869 0.3430 0.3150 0.3060 0.2960 0.2940
1380.764762 0.3160 0.3181 0.3420 0.3530 0.3540
1384.072655 0.3540 0.3530 0.2800 0.2071 0.1780
1387.380548 0.1770 0.1781 0.2321 0.3230 0.3400
1390.688441 0.3840 0.4560 0.4800 0.4960 0.5050
1393.996334 0.5110 0.5150 0.5190 0.5260 0.5370
1397.304227 0.5520 0.5650 0.5760 0.5850 0.6000
1400.612120 0.6050 0.6100 0.6130 0.6160 0.6170
1403.920013 0.6180 0.6200 0.6200 0.6210 0.6220
1407.227906 0.6230 0.6240 0.6260 0.6290 0.6320
1410.535799 0.6360 0.6410 0.6480 0.6550 0.6630
1413.843692 0.6690 0.6750 0.6790 0.6830 0.6860
1417.151585 0.6880 0.6900 0.6910 0.6920 0.6930
1420.459479 0.6930 0.6930 0.6930 0.6930 0.6920
1423.767372 0.6910 0.6910 0.6890 0.6870 0.6860
1427.075265 0.6840 0.6810 0.6770 0.6700 0.6640
1430.383158 0.6580 0.6530 0.6470 0.6410 0.6350
1433.691051 0.6280 0.6200 0.6090 0.6020 0.5960
1436.998944 0.5800 0.5620 0.5390 0.5131 0.4821
1440.306837 0.4649 0.4469 0.4230 0.4210 0.4200
1443.614730 0.4210 0.4300 0.4650 0.4850 0.5060
1446.922623 0.5271 0.5480 0.5681 0.6030 0.6040
1450.230516 0.6060 0.6050 0.6010 0.5960 0.5910
1453.538409 0.5760 0.5600 0.5480 0.5350 0.5320
1456.846302 0.5310 0.5320 0.5340 0.5400 0.5520
1460.154195 0.5691 0.6020 0.6120 0.6220 0.6310
1463.462088 0.6360 0.6370 0.6370 0.6370 0.6370
1466.769981 0.6370 0.6360 0.6290 0.6180 0.6000
1470.077874 0.5820 0.5510 0.5250 0.5010 0.4820
1473.385767 0.4650 0.4499 0.4049 0.3600 0.3440
1476.693661 0.3430 0.3430 0.3660 0.3890 0.4719
1480.001554 0.4901 0.5190 0.5440 0.5650 0.5840
1483.309447 0.6110 0.6220 0.6290 0.6360 0.6410
1486.617340 0.6450 0.6490 0.6510 0.6550 0.6570
1489.925233 0.6580 0.6580 0.6580 0.6580 0.6570
1493.233126 0.6560 0.6550 0.6510 0.6490 0.6470
1496.541019 0.6430 0.6410 0.6400 0.6390 0.6350
1499.848912 0.6290 0.6230 0.6160 0.6100 0.6030
1503.156805 0.6000 0.5980 0.5940 0.5920 0.5850
1506.464698 0.5790 0.5750 0.5710 0.5690 0.5670
1509.772591 0.5640 0.5620 0.5600 0.5560 0.5540
1513.080484 0.5530 0.5520 0.5520 0.5510 0.5500
1516.388377 0.5500 0.5500 0.5490 0.5480 0.5470
1519.696270 0.5470 0.5460 0.5450 0.5420 0.5390
1523.004163 0.5360 0.5340 0.5320 0.5310 0.5290
1526.312056 0.5260 0.5240 0.5210 0.5180 0.5140
1529.619949 0.5090 0.5040 0.4980 0.4900 0.4870
1532.927843 0.4830 0.4790 0.4750 0.4700 0.4660
1536.235736 0.4610 0.4570 0.4520 0.4500 0.4470
1539.543629 0.4430 0.4390 0.4360 0.4320 0.4290
1542.851522 0.4260 0.4240 0.4220 0.4190 0.4170
1546.159415 0.4150 0.4130 0.4110 0.4100 0.4080
1549.467308 0.4080 0.4070 0.4060 0.4060 0.4060
1552.775201 0.4050 0.4050 0.4050 0.4060 0.4060
1556.083094 0.4060 0.4060 0.4060 0.4070 0.4080
1559.390987 0.4080 0.4080 0.4080 0.4080 0.4090
1562.698880 0.4090 0.4100 0.4100 0.4120 0.4160
1566.006773 0.4200 0.4240 0.4280 0.4330 0.4370
1569.314666 0.4410 0.4450 0.4510 0.4520 0.4570
1572.622559 0.4570 0.4570 0.4580 0.4590 0.4570
1575.930452 0.4570 0.4530 0.4510 0.4500 0.4490
1579.238345 0.4410 0.4330 0.4260 0.4200 0.4130
1582.546238 0.4080 0.4020 0.3960 0.3900 0.3830
1585.854131 0.3760 0.3680 0.3600 0.3500 0.3390
1589.162025 0.3260 0.3080 0.2960 0.2850 0.2770
1592.469918 0.2640 0.2510 0.2380 0.2260 0.2130
1595.777811 0.1990 0.1840 0.1680 0.1510 0.1410
1599.085704 0.1309 0.1099 0.0850 0.0580 0.0500
1602.393597 0.0440 0.0380 0.0320 0.0270 0.0230
1605.701490 0.0190 0.0150 0.0110 0.0100 0.0090
1609.009383 0.0090 0.0090 0.0090 0.0090 0.0090
1612.317276 0.0090 0.0100 0.0130 0.0150 0.0190
1615.625169 0.0230 0.0290 0.0360 0.0440 0.0520
1618.933062 0.0620 0.0700 0.0790 0.0870 0.0940
1622.240955 0.1020 0.1070 0.1120 0.1140 0.1150
1625.548848 0.1160 0.1150 0.1140 0.1120 0.1100
1628.856741 0.1050 0.1000 0.0940 0.0880 0.0810
1632.164634 0.0750 0.0690 0.0640 0.0600 0.0580
1635.472527 0.0580 0.0570 0.0560 0.0570 0.0600
1638.780420 0.0630 0.0710 0.0800 0.0890 0.0980
1642.088313 0.1060 0.1150 0.1230 0.1290 0.1350
1645.396207 0.1390 0.1410 0.1440 0.1450 0.1470
1648.704100 0.1470 0.1500 0.1510 0.1530 0.1530
1652.011993 0.1550 0.1560 0.1560 0.1590 0.1640
1655.319886 0.1650 0.1680 0.1820 0.2000 0.2260
1658.627779 0.2510 0.2630 0.2830 0.2850 0.3030
1661.935672 0.3190 0.3370 0.3530 0.3700 0.3750
1665.243565 0.3850 0.4040 0.4221 0.4570 0.4740
1668.551458 0.4910 0.5070 0.5210 0.5340 0.5470
1671.859351 0.5590 0.5690 0.5800 0.5890 0.6060
1675.167244 0.6130 0.6200 0.6290 0.6330 0.6350
1678.475137 0.6380 0.6390 0.6490 0.6580 0.6680
1681.783030 0.6720 0.6760 0.6790 0.6910 0.6990
1685.090923 0.7050 0.7110 0.7170 0.7220 0.7260
1688.398816 0.7300 0.7340 0.7370 0.7400 0.7420
1691.706709 0.7450 0.7470 0.7510 0.7530 0.7550
1695.014602 0.7570 0.7590 0.7620 0.7650 0.7670
1698.322495 0.7710 0.7740 0.7780 0.7810 0.7810
1701.630389 0.7820 0.7820 0.7830 0.7830 0.7840
1704.938282 0.7840 0.7850 0.7840 0.7850 0.7860
1708.246175 0.7860 0.7860 0.7860 0.7870 0.7870
1711.554068 0.7880 0.7880 0.7880 0.7880 0.7890
1714.861961 0.7900 0.7900 0.7910 0.7910 0.7920
1718.169854 0.7930 0.7950 0.7950 0.7960 0.7960
1721.477747 0.7960 0.7970 0.7970 0.7980 0.7980
1724.785640 0.7990 0.8000 0.8000 0.8000 0.8000
1728.093533 0.8000 0.8010 0.8010 0.8020 0.8020
1731.401426 0.8030 0.8030 0.8040 0.8040 0.8040
1734.709319 0.8040 0.8040 0.8040 0.8040 0.8040
1738.017212 0.8040 0.8040 0.8050 0.8050 0.8050
1741.325105 0.8050 0.8060 0.8060 0.8070 0.8080
1744.632998 0.8080 0.8080 0.8090 0.8090 0.8100
1747.940891 0.8120 0.8130 0.8130 0.8130 0.8140
1751.248784 0.8140 0.8150 0.8150 0.8150 0.8160
1754.556677 0.8170 0.8170 0.8170 0.8170 0.8180
1757.864571 0.8180 0.8190 0.8190 0.8180 0.8180
1761.172464 0.8180 0.8180 0.8170 0.8170 0.8170
1764.480357 0.8170 0.8170 0.8160 0.8160 0.8150
1767.788250 0.8150 0.8140 0.8130 0.8130 0.8120
1771.096143 0.8120 0.8110 0.8110 0.8100 0.8100
1774.404036 0.8080 0.8070 0.8070 0.8060 0.8060
1777.711929 0.8050 0.8050 0.8050 0.8050 0.8060
1781.019822 0.8060 0.8070 0.8080 0.8090 0.8100
1784.327715 0.8100 0.8110 0.8110 0.8110 0.8110
1787.635608 0.8110 0.8110 0.8100 0.8100 0.8100
1790.943501 0.8100 0.8100 0.8100 0.8100 0.8090
1794.251394 0.8090 0.8080 0.8080 0.8070 0.8060
1797.559287 0.8060 0.8050 0.8050 0.8040 0.8040
1800.867180 0.8040 0.8030 0.8030 0.8020 0.8020
1804.175073 0.8020 0.8020 0.8020 0.8020 0.8020
1807.482966 0.8010 0.8010 0.8010 0.8000 0.7990
1810.790859 0.7970 0.7960 0.7950 0.7950 0.7960
1814.098752 0.7970 0.7980 0.7990 0.8000 0.8020
1817.406646 0.8030 0.8040 0.8050 0.8060 0.8070
1820.714539 0.8080 0.8090 0.8120 0.8120 0.8120
1824.022432 0.8120 0.8130 0.8130 0.8140 0.8140
1827.330325 0.8150 0.8150 0.8150 0.8160 0.8170
1830.638218 0.8170 0.8180 0.8190 0.8190 0.8190
1833.946111 0.8200 0.8210 0.8210 0.8210 0.8210
1837.254004 0.8210 0.8210 0.8210 0.8210 0.8210
1840.561897 0.8210 0.8210 0.8210 0.8200 0.8200
1843.869790 0.8200 0.8200 0.8190 0.8190 0.8190
1847.177683 0.8190 0.8190 0.8180 0.8180 0.8180
1850.485576 0.8170 0.8170 0.8170 0.8170 0.8160
1853.793469 0.8150 0.8150 0.8150 0.8140 0.8140
1857.101362 0.8130 0.8130 0.8130 0.8130 0.8130
1860.409255 0.8130 0.8120 0.8120 0.8120 0.8120
1863.717148 0.8120 0.8120 0.8110 0.8100 0.8100
1867.025041 0.8100 0.8090 0.8080 0.8080 0.8080
1870.332934 0.8070 0.8060 0.8060 0.8050 0.8040
1873.640828 0.8040 0.8030 0.8000 0.7960 0.7920
1876.948721 0.7870 0.7840 0.7810 0.7780 0.7760
1880.256614 0.7750 0.7750 0.7750 0.7770 0.7770
1883.564507 0.7800 0.7820 0.7840 0.7870 0.7900
1886.872400 0.7920 0.7940 0.7960 0.7980 0.8000
1890.180293 0.8010 0.8020 0.8020 0.8030 0.8040
1893.488186 0.8040 0.8040 0.8040 0.8040 0.8040
1896.796079 0.8040 0.8040 0.8040 0.8040 0.8040
1900.103972 0.8040 0.8030 0.8020 0.8020 0.8010
1903.411865 0.8010 0.8000 0.8000 0.8000 0.7990
1906.719758 0.7980 0.7970 0.7960 0.7940 0.7930
1910.027651 0.7920 0.7920 0.7910 0.7900 0.7900
1913.335544 0.7890 0.7880 0.7880 0.7870 0.7860
1916.643437 0.7850 0.7840 0.7840 0.7830 0.7830
1919.951330 0.7820 0.7820 0.7820 0.7820 0.7820
1923.259223 0.7820 0.7820 0.7820 0.7820 0.7820
1926.567116 0.7820 0.7820 0.7830 0.7840 0.7840
1929.875010 0.7850 0.7860 0.7880 0.7880 0.7890
1933.182903 0.7900 0.7910 0.7930 0.7940 0.7990
1936.490796 0.8020 0.8040 0.8070 0.8090 0.8100
1939.798689 0.8100 0.8100 0.8110 0.8110 0.8120
1943.106582 0.8120 0.8120 0.8130 0.8140 0.8140
1946.414475 0.8140 0.8150 0.8150 0.8150 0.8140
1949.722368 0.8130 0.8120 0.8120 0.8120 0.8110
1953.030261 0.8110 0.8100 0.8100 0.8100 0.8100
1956.338154 0.8100 0.8100 0.8100 0.8100 0.8100
1959.646047 0.8110 0.8120 0.8120 0.8130 0.8130
1962.953940 0.8140 0.8140 0.8150 0.8150 0.8160
1966.261833 0.8170 0.8170 0.8170 0.8190 0.8190
1969.569726 0.8200 0.8210 0.8210 0.8210 0.8210
1972.877619 0.8220 0.8220 0.8230 0.8230 0.8230
1976.185512 0.8230 0.8230 0.8230 0.8230 0.8230
1979.493405 0.8230 0.8230 0.8230 0.8230 0.8230
1982.801298 0.8230 0.8220 0.8220 0.8220 0.8220
1986.109192 0.8210 0.8210 0.8210 0.8210 0.8210
1989.417085 0.8210 0.8210 0.8210 0.8210 0.8200
1992.724978 0.8200 0.8200 0.8200 0.8200 0.8200
1996.032871 0.8200 0.8190 0.8190 0.8190 0.8190
1999.340764 0.8190 0.8190 0.8190 0.8190 0.8190
2002.648657 0.8190 0.8190 0.8190 0.8190 0.8190
2005.956550 0.8190 0.8190 0.8190 0.8190 0.8190
2009.264443 0.8190 0.8190 0.8190 0.8190 0.8190
2012.572336 0.8190 0.8190 0.8190 0.8190 0.8190
2015.880229 0.8190 0.8190 0.8190 0.8190 0.8190
2019.188122 0.8190 0.8190 0.8190 0.8190 0.8190
2022.496015 0.8190 0.8190 0.8190 0.8190 0.8190
2025.803908 0.8190 0.8190 0.8190 0.8190 0.8190
2029.111801 0.8190 0.8187 0.8185 0.8182 0.8180
2032.419694 0.8180 0.8180 0.8180 0.8180 0.8180
2035.727587 0.8180 0.8180 0.8180 0.8180 0.8180
2039.035480 0.8180 0.8180 0.8177 0.8175 0.8172
2042.343374 0.8170 0.8170 0.8170 0.8170 0.8170
2045.651267 0.8170 0.8170 0.8170 0.8170 0.8170
2048.959160 0.8170 0.8170 0.8170 0.8170 0.8170
2052.267053 0.8170 0.8170 0.8170 0.8170 0.8170
2055.574946 0.8170 0.8170 0.8170 0.8170 0.8170
2058.882839 0.8170 0.8170 0.8170 0.8170 0.8170
2062.190732 0.8170 0.8170 0.8170 0.8170 0.8170
2065.498625 0.8170 0.8170 0.8170 0.8170 0.8170
2068.806518 0.8169 0.8167 0.8164 0.8162 0.8161
2072.114411 0.8163 0.8166 0.8168 0.8170 0.8170
2075.422304 0.8170 0.8170 0.8170 0.8170 0.8170
2078.730197 0.8170 0.8170 0.8170 0.8170 0.8170
2082.038090 0.8170 0.8170 0.8170 0.8170 0.8170
2085.345983 0.8170 0.8170 0.8170 0.8170 0.8170
2088.653876 0.8170 0.8170 0.8170 0.8170 0.8170
2091.961769 0.8170 0.8170 0.8170 0.8170 0.8170
2095.269662 0.8170 0.8170 0.8170 0.8170 0.8171
2098.577556 0.8173 0.8176 0.8178 0.8180 0.8180
2101.885449 0.8180 0.8180 0.8180 0.8180 0.8180
2105.193342 0.8180 0.8180 0.8180 0.8180 0.8180
2108.501235 0.8180 0.8180 0.8180 0.8180 0.8181
2111.809128 0.8183 0.8186 0.8188 0.8190 0.8190
2115.117021 0.8190 0.8190 0.8190 0.8190 0.8190
2118.424914 0.8190 0.8190 0.8190 0.8190 0.8190
2121.732807 0.8190 0.8190 0.8190 0.8190 0.8190
2125.040700 0.8190 0.8190 0.8190 0.8190 0.8190
2128.348593 0.8190 0.8190 0.8190 0.8190 0.8190
2131.656486 0.8190 0.8190 0.8190 0.8190 0.8190
2134.964379 0.8190 0.8190 0.8190 0.8190 0.8191
2138.272272 0.8194 0.8196 0.8199 0.8200 0.8200
2141.580165 0.8200 0.8200 0.8200 0.8200 0.8200
2144.888058 0.8200 0.8200 0.8200 0.8200 0.8200
2148.195951 0.8200 0.8200 0.8200 0.8200 0.8200
2151.503844 0.8200 0.8200 0.8200 0.8201 0.8204
2154.811738 0.8206 0.8209 0.8210 0.8210 0.8210
2158.119631 0.8210 0.8210 0.8210 0.8210 0.8210
2161.427524 0.8210 0.8210 0.8210 0.8210 0.8210
2164.735417 0.8210 0.8210 0.8210 0.8210 0.8210
2168.043310 0.8210 0.8210 0.8210 0.8210 0.8210
2171.351203 0.8210 0.8210 0.8210 0.8210 0.8210
2174.659096 0.8210 0.8210 0.8210 0.8210 0.8210
2177.966989 0.8210 0.8210 0.8210 0.8211 0.8214
2181.274882 0.8216 0.8219 0.8220 0.8220 0.8220
2184.582775 0.8220 0.8220 0.8220 0.8220 0.8220
2187.890668 0.8220 0.8220 0.8220 0.8220 0.8220
2191.198561 0.8220 0.8220 0.8220 0.8222 0.8224
2194.506454 0.8227 0.8229 0.8230 0.8230 0.8230
2197.814347 0.8230 0.8230 0.8230 0.8230 0.8230
2201.122240 0.8230 0.8230 0.8230 0.8230 0.8230
2204.430133 0.8230 0.8230 0.8230 0.8232 0.8234
2207.738026 0.8237 0.8239 0.8240 0.8240 0.8240
2211.045920 0.8240 0.8240 0.8240 0.8240 0.8240
2214.353813 0.8238 0.8236 0.8233 0.8231 0.8230
2217.661706 0.8230 0.8230 0.8230 0.8230 0.8230
2220.969599 0.8230 0.8230 0.8230 0.8230 0.8230
2224.277492 0.8230 0.8230 0.8230 0.8230 0.8230
2227.585385 0.8230 0.8230 0.8230 0.8230 0.8228
2230.893278 0.8226 0.8223 0.8221 0.8220 0.8220
2234.201171 0.8220 0.8220 0.8218 0.8216 0.8213
2237.509064 0.8210 0.8210 0.8210 0.8210 0.8210
2240.816957 0.8210 0.8210 0.8210 0.8210 0.8208
2244.124850 0.8205 0.8203 0.8200 0.8198 0.8195
2247.432743 0.8193 0.8190 0.8190 0.8190 0.8190
2250.740636 0.8190 0.8190 0.8190 0.8190 0.8190
2254.048529 0.8188 0.8185 0.8183 0.8180 0.8180
2257.356422 0.8180 0.8180 0.8180 0.8178 0.8175
2260.664315 0.8173 0.8170 0.8170 0.8170 0.8170
2263.972208 0.8170 0.8170 0.8170 0.8170 0.8170
2267.280102 0.8170 0.8170 0.8170 0.8170 0.8168
2270.587995 0.8165 0.8163 0.8160 0.8160 0.8160
2273.895888 0.8160 0.8160 0.8160 0.8160 0.8160
2277.203781 0.8160 0.8158 0.8155 0.8153 0.8150
2280.511674 0.8150 0.8150 0.8150 0.8150 0.8150
2283.819567 0.8150 0.8150 0.8150 0.8150 0.8150
2287.127460 0.8150 0.8150 0.8148 0.8145 0.8143
2290.435353 0.8140 0.8140 0.8140 0.8140 0.8140
2293.743246 0.8137 0.8135 0.8132 0.8130 0.8130
2297.051139 0.8130 0.8130 0.8130 0.8130 0.8130
2300.359032 0.8130 0.8130 0.8130 0.8130 0.8130
2303.666925 0.8130 0.8127 0.8125 0.8122 0.8120
2306.974818 0.8120 0.8120 0.8120 0.8120 0.8120
2310.282711 0.8120 0.8120 0.8120 0.8120 0.8120
2313.590604 0.8120 0.8120 0.8120 0.8120 0.8120
2316.898497 0.8120 0.8120 0.8120 0.8120 0.8120
2320.206390 0.8120 0.8120 0.8120 0.8120 0.8120
2323.514284 0.8120 0.8120 0.8120 0.8120 0.8120
2326.822177 0.8120 0.8120 0.8123 0.8125 0.8128
2330.130070 0.8130 0.8130 0.8130 0.8130 0.8130
2333.437963 0.8130 0.8130 0.8130 0.8130 0.8133
2336.745856 0.8135 0.8138 0.8140 0.8140 0.8140
2340.053749 0.8140 0.8140 0.8143 0.8145 0.8148
2343.361642 0.8150 0.8150 0.8150 0.8150 0.8150
2346.669535 0.8150 0.8150 0.8150 0.8150 0.8153
2349.977428 0.8156 0.8158 0.8160 0.8160 0.8160
2353.285321 0.8160 0.8161 0.8163 0.8166 0.8168
2356.593214 0.8170 0.8170 0.8170 0.8170 0.8171
2359.901107 0.8173 0.8176 0.8178 0.8180 0.8180
2363.209000 0.8180 0.8180 0.8180 0.8180 0.8180
2366.516893 0.8180 0.8181 0.8183 0.8186 0.8188
2369.824786 0.8190 0.8190 0.8190 0.8190 0.8190
2373.132679 0.8190 0.8190 0.8190 0.8190 0.8190
2376.440572 0.8190 0.8190 0.8190 0.8190 0.8190
2379.748466 0.8190 0.8191 0.8193 0.8196 0.8198
2383.056359 0.8200 0.8200 0.8200 0.8200 0.8201
2386.364252 0.8203 0.8206 0.8208 0.8210 0.8210
2389.672145 0.8210 0.8210 0.8210 0.8210 0.8210
2392.980038 0.8210 0.8210 0.8210 0.8210 0.8210
2396.287931 0.8211 0.8213 0.8216 0.8218 0.8220
2399.595824 0.8220 0.8220 0.8220 0.8221 0.8223
2402.903717 0.8226 0.8228 0.8230 0.8230 0.8230
2406.211610 0.8230 0.8230 0.8230 0.8230 0.8230
2409.519503 0.8231 0.8233 0.8236 0.8238 0.8241
2412.827396 0.8244 0.8246 0.8249 0.8250 0.8250
2416.135289 0.8250 0.8250 0.8250 0.8250 0.8250
2419.443182 0.8250 0.8250 0.8250 0.8250 0.8250
2422.751075 0.8250 0.8250 0.8250 0.8250 0.8251
2426.058968 0.8254 0.8256 0.8259 0.8260 0.8260
2429.366861 0.8260 0.8260 0.8261 0.8264 0.8266
2432.674754 0.8269 0.8270 0.8270 0.8270 0.8270
2435.982648 0.8270 0.8270 0.8270 0.8270 0.8270
2439.290541 0.8270 0.8270 0.8270 0.8271 0.8274
2442.598434 0.8276 0.8279 0.8280 0.8280 0.8280
2445.906327 0.8280 0.8281 0.8284 0.8286 0.8289
2449.214220 0.8290 0.8290 0.8290 0.8290 0.8291
2452.522113 0.8294 0.8296 0.8299 0.8301 0.8304
2455.830006 0.8306 0.8309 0.8310 0.8310 0.8310
2459.137899 0.8310 0.8310 0.8310 0.8310 0.8310
2462.445792 0.8311 0.8314 0.8316 0.8319 0.8320
2465.753685 0.8320 0.8320 0.8320 0.8320 0.8320
2469.061578 0.8320 0.8320 0.8320 0.8320 0.8320
2472.369471 0.8320 0.8320 0.8320 0.8320 0.8320
2475.677364 0.8320 0.8320 0.8320 0.8320 0.8320
2478.985257 0.8320 0.8320 0.8320 0.8318 0.8316
2482.293150 0.8313 0.8311 0.8310 0.8310 0.8310
2485.601043 0.8310 0.8310 0.8310 0.8310 0.8310
2488.908936 0.8308 0.8306 0.8303 0.8301 0.8298
2492.216830 0.8296 0.8293 0.8291 0.8290 0.8290
2495.524723 0.8290 0.8290 0.8290 0.8290 0.8290
2498.832616 0.8290 0.8290 0.8290 0.8290 0.8290
2502.140509 0.8288 0.8286 0.8283 0.8281 0.8278
2505.448402 0.8276 0.8273 0.8271 0.8270 0.8270
2508.756295 0.8270 0.8270 0.8268 0.8266 0.8263
2512.064188 0.8261 0.8258 0.8256 0.8253 0.8251
2515.372081 0.8250 0.8250 0.8250 0.8250 0.8248
2518.679974 0.8246 0.8243 0.8241 0.8238 0.8236
2521.987867 0.8233 0.8231 0.8230 0.8230 0.8230
2525.295760 0.8230 0.8226 0.8221 0.8216 0.8211
2528.603653 0.8210 0.8210 0.8210 0.8210 0.8210
2531.911546 0.8210 0.8210 0.8210 0.8208 0.8205
2535.219439 0.8203 0.8200 0.8198 0.8195 0.8193
2538.527332 0.8190 0.8190 0.8190 0.8190 0.8190
2541.835225 0.8188 0.8185 0.8183 0.8180 0.8178
2545.143118 0.8175 0.8173 0.8170 0.8170 0.8170
2548.451012 0.8170 0.8170 0.8168 0.8165 0.8163
2551.758905 0.8160 0.8158 0.8155 0.8153 0.8150
2555.066798 0.8148 0.8145 0.8143 0.8140 0.8138
2558.374691 0.8135 0.8133 0.8130 0.8130 0.8130
2561.682584 0.8130 0.8130 0.8130 0.8130 0.8130
2564.990477 0.8130 0.8128 0.8125 0.8123 0.8120
2568.298370 0.8120 0.8120 0.8120 0.8120 0.8120
2571.606263 0.8120 0.8120 0.8120 0.8120 0.8120
2574.914156 0.8120 0.8120 0.8118 0.8115 0.8113
2578.222049 0.8110 0.8110 0.8110 0.8110 0.8110
2581.529942 0.8113 0.8115 0.8118 0.8120 0.8120
2584.837835 0.8120 0.8120 0.8120 0.8123 0.8125
2588.145728 0.8128 0.8130 0.8130 0.8130 0.8130
2591.453621 0.8130 0.8130 0.8130 0.8130 0.8130
2594.761514 0.8133 0.8135 0.8138 0.8140 0.8143
2598.069407 0.8145 0.8148 0.8150 0.8150 0.8150
2601.377300 0.8150 0.8150 0.8150 0.8150 0.8150
2604.685194 0.8150 0.8153 0.8155 0.8158 0.8160
2607.993087 0.8163 0.8165 0.8168 0.8170 0.8170
2611.300980 0.8170 0.8170 0.8170 0.8170 0.8170
2614.608873 0.8170 0.8170 0.8173 0.8175 0.8178
2617.916766 0.8180 0.8183 0.8185 0.8188 0.8191
2621.224659 0.8196 0.8201 0.8206 0.8211 0.8216
2624.532552 0.8221 0.8226 0.8231 0.8236 0.8241
2627.840445 0.8246 0.8250 0.8253 0.8255 0.8258
2631.148338 0.8261 0.8266 0.8271 0.8276 0.8280
2634.456231 0.8280 0.8280 0.8280 0.8282 0.8289
2637.764124 0.8297 0.8304 0.8310 0.8310 0.8310
2641.072017 0.8310 0.8310 0.8310 0.8310 0.8310
2644.379910 0.8311 0.8313 0.8316 0.8318 0.8321
2647.687803 0.8323 0.8326 0.8328 0.8330 0.8330
2650.995696 0.8330 0.8330 0.8330 0.8330 0.8330
2654.303589 0.8330 0.8330 0.8330 0.8330 0.8330
2657.611482 0.8330 0.8330 0.8330 0.8330 0.8330
2660.919375 0.8330 0.8330 0.8330 0.8330 0.8330
2664.227269 0.8330 0.8330 0.8329 0.8327 0.8324
2667.535162 0.8322 0.8320 0.8320 0.8320 0.8320
2670.843055 0.8320 0.8320 0.8320 0.8320 0.8319
2674.150948 0.8317 0.8314 0.8312 0.8310 0.8310
2677.458841 0.8310 0.8310 0.8308 0.8300 0.8293
2680.766734 0.8285 0.8278 0.8273 0.8268 0.8263
2684.074627 0.8258 0.8253 0.8248 0.8243 0.8239
2687.382520 0.8237 0.8234 0.8232 0.8228 0.8223
2690.690413 0.8218 0.8213 0.8209 0.8207 0.8204
2693.998306 0.8202 0.8199 0.8197 0.8194 0.8192
2697.306199 0.8188 0.8183 0.8178 0.8173 0.8167
2700.614092 0.8159 0.8152 0.8144 0.8138 0.8133
2703.921985 0.8128 0.8123 0.8118 0.8113 0.8108
2707.229878 0.8103 0.8098 0.8093 0.8088 0.8083
2710.537771 0.8078 0.8073 0.8068 0.8063 0.8059
2713.845664 0.8056 0.8054 0.8051 0.8050 0.8050
2717.153557 0.8050 0.8050 0.8049 0.8046 0.8044
2720.461451 0.8041 0.8035 0.8025 0.8015 0.8005
2723.769344 0.7999 0.7996 0.7994 0.7991 0.7988
2727.077237 0.7983 0.7978 0.7973 0.7969 0.7966
2730.385130 0.7964 0.7961 0.7958 0.7952 0.7947
2733.693023 0.7942 0.7939 0.7936 0.7934 0.7931
2737.000916 0.7929 0.7926 0.7924 0.7921 0.7919
2740.308809 0.7916 0.7914 0.7911 0.7904 0.7894
2743.616702 0.7884 0.7874 0.7869 0.7866 0.7864
2746.924595 0.7861 0.7859 0.7856 0.7854 0.7851
2750.232488 0.7849 0.7846 0.7844 0.7841 0.7839
2753.540381 0.7836 0.7834 0.7831 0.7829 0.7826
2756.848274 0.7824 0.7821 0.7820 0.7820 0.7820
2760.156167 0.7820 0.7819 0.7816 0.7814 0.7811
2763.464060 0.7807 0.7802 0.7797 0.7792 0.7787
2766.771953 0.7782 0.7777 0.7772 0.7768 0.7766
2770.079846 0.7763 0.7761 0.7758 0.7756 0.7753
2773.387739 0.7751 0.7747 0.7742 0.7737 0.7732
2776.695633 0.7728 0.7726 0.7723 0.7721 0.7717
2780.003526 0.7712 0.7707 0.7702 0.7695 0.7687
2783.311419 0.7680 0.7672 0.7667 0.7662 0.7657
2786.619312 0.7652 0.7647 0.7642 0.7637 0.7632
2789.927205 0.7620 0.7604 0.7589 0.7574 0.7559
2793.235098 0.7544 0.7529 0.7514 0.7508 0.7506
2796.542991 0.7503 0.7501 0.7494 0.7487 0.7479
2799.850884 0.7472 0.7457 0.7439 0.7422 0.7404
2803.158777 0.7392 0.7382 0.7372 0.7362 0.7356
2806.466670 0.7351 0.7346 0.7341 0.7334 0.7327
2809.774563 0.7319 0.7312 0.7304 0.7297 0.7289
2813.082456 0.7282 0.7276 0.7271 0.7266 0.7261
2816.390349 0.7254 0.7246 0.7239 0.7231 0.7224
2819.698242 0.7216 0.7209 0.7201 0.7194 0.7186
2823.006135 0.7179 0.7171 0.7164 0.7156 0.7149
2826.314028 0.7141 0.7134 0.7126 0.7119 0.7111
2829.621921 0.7101 0.7091 0.7081 0.7071 0.7057
2832.929815 0.7042 0.7027 0.7012 0.6930 0.6838
2836.237708 0.6745 0.6652 0.6599 0.6551 0.6504
2839.545601 0.6456 0.6406 0.6356 0.6306 0.6256
2842.853494 0.6208 0.6160 0.6112 0.6063 0.6039
2846.161387 0.6017 0.5994 0.5971 0.5947 0.5922
2849.469280 0.5897 0.5872 0.5825 0.5778 0.5730
2852.777173 0.5683 0.5635 0.5588 0.5540 0.5493
2856.085066 0.5429 0.5363 0.5298 0.5233 0.5164
2859.392959 0.5093 0.5023 0.4953 0.4943 0.4935
2862.700852 0.4928 0.4920 0.4867 0.4812 0.4757
2866.008745 0.4702 0.4570 0.4435 0.4300 0.4165
2869.316638 0.4025 0.3886 0.3746 0.3608 0.3523
2872.624531 0.3438 0.3353 0.3268 0.3185 0.3103
2875.932424 0.3020 0.2940 0.2935 0.2930 0.2925
2879.240317 0.2921 0.2954 0.2986 0.3019 0.3051
2882.548210 0.3079 0.3106 0.3134 0.3161 0.3189
2885.856103 0.3216 0.3244 0.3271 0.3296 0.3321
2889.163997 0.3346 0.3371 0.3388 0.3406 0.3423
2892.471890 0.3442 0.3474 0.3507 0.3539 0.3570
2895.779783 0.3573 0.3575 0.3578 0.3580 0.3580
2899.087676 0.3580 0.3580 0.3579 0.3574 0.3569
2902.395569 0.3564 0.3553 0.3498 0.3443 0.3388
2905.703462 0.3337 0.3309 0.3282 0.3254 0.3226
2909.011355 0.3199 0.3171 0.3144 0.3119 0.3114
2912.319248 0.3109 0.3104 0.3098 0.3083 0.3068
2915.627141 0.3053 0.3039 0.3034 0.3029 0.3024
2918.935034 0.3020 0.3020 0.3020 0.3020 0.3021
2922.242927 0.3026 0.3031 0.3036 0.3047 0.3079
2925.550820 0.3112 0.3144 0.3177 0.3212 0.3247
2928.858713 0.3282 0.3317 0.3349 0.3382 0.3414
2932.166606 0.3448 0.3483 0.3518 0.3553 0.3588
2935.474499 0.3626 0.3663 0.3701 0.3738 0.3773
2938.782392 0.3808 0.3843 0.3878 0.3913 0.3948
2942.090285 0.3983 0.4051 0.4229 0.4406 0.4584
2945.398179 0.4722 0.4732 0.4742 0.4752 0.4759
2948.706072 0.4757 0.4754 0.4752 0.4749 0.4747
2952.013965 0.4744 0.4742 0.4678 0.4473 0.4268
2955.321858 0.4063 0.3858 0.3652 0.3447 0.3242
2958.629751 0.3036 0.2828 0.2621 0.2413 0.2240
2961.937644 0.2145 0.2050 0.1955 0.1862 0.1771
2965.245537 0.1681 0.1591 0.1515 0.1467 0.1420
2968.553430 0.1372 0.1325 0.1280 0.1235 0.1190
2971.861323 0.1129 0.1034 0.0939 0.0844 0.0779
2975.169216 0.0777 0.0774 0.0772 0.0846 0.1041
2978.477109 0.1236 0.1431 0.1625 0.1818 0.2011
2981.785002 0.2203 0.2320 0.2320 0.2320 0.2320
2985.092895 0.2407 0.2624 0.2842 0.3060 0.3240
2988.400788 0.3365 0.3491 0.3616 0.3691 0.3694
2991.708681 0.3696 0.3699 0.3740 0.3838 0.3935
2995.016574 0.4033 0.4158 0.4324 0.4489 0.4654
2998.324467 0.4751 0.4754 0.4756 0.4759 0.4864
3001.632361 0.5110 0.5356 0.5602 0.5758 0.5815
3004.940254 0.5873 0.5930 0.6010 0.6112 0.6215
3008.248147 0.6317 0.6402 0.6467 0.6532 0.6597
3011.556040 0.6652 0.6697 0.6742 0.6787 0.6842
3014.863933 0.6907 0.6972 0.7037 0.7075 0.7085
3018.171826 0.7095 0.7105 0.7113 0.7118 0.7123
3021.479719 0.7128 0.7130 0.7130 0.7130 0.7130
3024.787612 0.7122 0.7107 0.7092 0.7077 0.7065
3028.095505 0.7055 0.7045 0.7034 0.7010 0.6975
3031.403398 0.6940 0.6905 0.6881 0.6866 0.6851
3034.711291 0.6836 0.6823 0.6810 0.6798 0.6785
3038.019184 0.6763 0.6733 0.6702 0.6672 0.6659
3041.327077 0.6656 0.6654 0.6651 0.6651 0.6654
3044.634970 0.6656 0.6659 0.6681 0.6716 0.6751
3047.942863 0.6786 0.6819 0.6852 0.6885 0.6917
3051.250756 0.6951 0.6986 0.7021 0.7056 0.7093
3054.558649 0.7131 0.7169 0.7207 0.7222 0.7224
3057.866543 0.7227 0.7229 0.7228 0.7226 0.7223
3061.174436 0.7221 0.7203 0.7178 0.7153 0.7128
3064.482329 0.7107 0.7087 0.7066 0.7046 0.7028
3067.790222 0.7011 0.6993 0.6976 0.6960 0.6945
3071.098115 0.6930 0.6915 0.6907 0.6902 0.6897
3074.406008 0.6892 0.6892 0.6894 0.6897 0.6899
3077.713901 0.6947 0.7014 0.7082 0.7149 0.7219
3081.021794 0.7290 0.7361 0.7432 0.7463 0.7481
3084.329687 0.7498 0.7516 0.7539 0.7564 0.7589
3087.637580 0.7614 0.7622 0.7624 0.7627 0.7629
3090.945473 0.7634 0.7639 0.7644 0.7649 0.7652
3094.253366 0.7654 0.7657 0.7659 0.7654 0.7647
3097.561259 0.7639 0.7632 0.7626 0.7621 0.7616
3100.869152 0.7611 0.7526 0.7418 0.7311 0.7203
3104.177045 0.7098 0.6992 0.6887 0.6782 0.6752
3107.484938 0.6742 0.6732 0.6722 0.6593 0.6443
3110.792831 0.6293 0.6143 0.6050 0.5967 0.5885
3114.100725 0.5802 0.5722 0.5642 0.5562 0.5482
3117.408618 0.5468 0.5465 0.5463 0.5460 0.5589
3120.716511 0.5739 0.5889 0.6040 0.6469 0.6942
3124.024404 0.7415 0.7887 0.7952 0.7955 0.7957
3127.332297 0.7960 0.7960 0.7960 0.7960 0.7960
3130.640190 0.7964 0.7969 0.7974 0.7979 0.8000
3133.948083 0.8023 0.8046 0.8069 0.8077 0.8085
3137.255976 0.8092 0.8100 0.8100 0.8100 0.8100
3140.563869 0.8100 0.8102 0.8105 0.8107 0.8110
3143.871762 0.8112 0.8115 0.8117 0.8120 0.8120
3147.179655 0.8120 0.8120 0.8120 0.8122 0.8125
3150.487548 0.8127 0.8130 0.8132 0.8135 0.8137
3153.795441 0.8140 0.8142 0.8145 0.8147 0.8150
3157.103334 0.8150 0.8150 0.8150 0.8150 0.8150
3160.411227 0.8150 0.8150 0.8150 0.8153 0.8155
3163.719120 0.8158 0.8160 0.8160 0.8160 0.8160
3167.027013 0.8160 0.8163 0.8165 0.8168 0.8170
3170.334907 0.8170 0.8170 0.8170 0.8170 0.8170
3173.642800 0.8170 0.8170 0.8170 0.8173 0.8175
3176.950693 0.8178 0.8180 0.8180 0.8180 0.8180
3180.258586 0.8180 0.8183 0.8185 0.8188 0.8190
3183.566479 0.8190 0.8190 0.8190 0.8190 0.8190
3186.874372 0.8190 0.8190 0.8190 0.8190 0.8190
3190.182265 0.8190 0.8190 0.8193 0.8195 0.8198
3193.490158 0.8200 0.8200 0.8200 0.8200 0.8200
3196.798051 0.8203 0.8205 0.8208 0.8210 0.8210
3200.105944 0.8210 0.8210 0.8210 0.8210 0.8210
3203.413837 0.8210 0.8210 0.8210 0.8210 0.8210
3206.721730 0.8210 0.8213 0.8215 0.8218 0.8220
3210.029623 0.8220 0.8220 0.8220 0.8220 0.8223
3213.337516 0.8225 0.8228 0.8230 0.8230 0.8230
3216.645409 0.8230 0.8230 0.8230 0.8230 0.8230
3219.953302 0.8230 0.8230 0.8230 0.8230 0.8231
3223.261195 0.8233 0.8236 0.8238 0.8240 0.8240
3226.569089 0.8240 0.8240 0.8241 0.8243 0.8246
3229.876982 0.8248 0.8250 0.8250 0.8250 0.8250
3233.184875 0.8250 0.8250 0.8250 0.8250 0.8250
3236.492768 0.8250 0.8250 0.8250 0.8250 0.8250
3239.800661 0.8250 0.8250 0.8250 0.8250 0.8250
3243.108554 0.8250 0.8250 0.8250 0.8250 0.8250
3246.416447 0.8250 0.8250 0.8250 0.8250 0.8250
3249.724340 0.8250 0.8250 0.8250 0.8250 0.8250
3253.032233 0.8250 0.8250 0.8251 0.8253 0.8256
3256.340126 0.8258 0.8260 0.8260 0.8260 0.8260
3259.648019 0.8260 0.8260 0.8260 0.8260 0.8260
3262.955912 0.8260 0.8260 0.8260 0.8261 0.8263
3266.263805 0.8266 0.8268 0.8270 0.8270 0.8270
3269.571698 0.8270 0.8270 0.8270 0.8270 0.8270
3272.879591 0.8270 0.8270 0.8270 0.8270 0.8270
3276.187484 0.8270 0.8270 0.8270 0.8270 0.8270
3279.495377 0.8270 0.8270 0.8270 0.8270 0.8270
3282.803271 0.8270 0.8270 0.8270 0.8270 0.8270
3286.111164 0.8270 0.8270 0.8270 0.8270 0.8270
3289.419057 0.8270 0.8270 0.8270 0.8270 0.8270
3292.726950 0.8270 0.8270 0.8270 0.8270 0.8270
3296.034843 0.8270 0.8270 0.8270 0.8270 0.8270
3299.342736 0.8270 0.8270 0.8270 0.8270 0.8270
3302.650629 0.8270 0.8270 0.8270 0.8270 0.8270
3305.958522 0.8270 0.8270 0.8270 0.8270 0.8270
3309.266415 0.8270 0.8270 0.8270 0.8270 0.8270
3312.574308 0.8270 0.8270 0.8270 0.8270 0.8269
3315.882201 0.8266 0.8264 0.8261 0.8260 0.8260
3319.190094 0.8260 0.8260 0.8260 0.8260 0.8260
3322.497987 0.8260 0.8260 0.8260 0.8260 0.8260
3325.805880 0.8259 0.8256 0.8254 0.8251 0.8250
3329.113773 0.8250 0.8250 0.8250 0.8250 0.8250
3332.421666 0.8250 0.8250 0.8250 0.8250 0.8250
3335.729559 0.8250 0.8249 0.8246 0.8243 0.8241
3339.037453 0.8240 0.8240 0.8240 0.8240 0.8240
3342.345346 0.8240 0.8240 0.8240 0.8240 0.8240
3345.653239 0.8240 0.8240 0.8240 0.8240 0.8240
3348.961132 0.8240 0.8238 0.8236 0.8233 0.8231
3352.269025 0.8230 0.8230 0.8230 0.8230 0.8230
3355.576918 0.8230 0.8230 0.8230 0.8230 0.8230
3358.884811 0.8230 0.8230 0.8232 0.8234 0.8237
3362.192704 0.8239 0.8242 0.8244 0.8247 0.8249
3365.500597 0.8250 0.8250 0.8250 0.8250 0.8250
3368.808490 0.8250 0.8250 0.8250 0.8252 0.8254
3372.116383 0.8257 0.8259 0.8260 0.8260 0.8260
3375.424276 0.8260 0.8260 0.8260 0.8260 0.8260
3378.732169 0.8262 0.8264 0.8267 0.8269 0.8270
3382.040062 0.8270 0.8270 0.8270 0.8270 0.8270
3385.347955 0.8270 0.8270 0.8270 0.8270 0.8270
3388.655848 0.8270 0.8270 0.8270 0.8270 0.8270
3391.963741 0.8272 0.8274 0.8277 0.8279 0.8280
3395.271635 0.8280 0.8280 0.8280 0.8282 0.8285
3398.579528 0.8287 0.8290 0.8290 0.8290 0.8290
3401.887421 0.8290 0.8290 0.8290 0.8290 0.8290
3405.195314 0.8290 0.8290 0.8290 0.8290 0.8290
3408.503207 0.8290 0.8290 0.8290 0.8290 0.8290
3411.811100 0.8290 0.8290 0.8290 0.8290 0.8290
3415.118993 0.8290 0.8290 0.8290 0.8290 0.8290
3418.426886 0.8290 0.8290 0.8290 0.8290 0.8292
3421.734779 0.8295 0.8297 0.8300 0.8300 0.8300
3425.042672 0.8300 0.8300 0.8300 0.8300 0.8300
3428.350565 0.8300 0.8302 0.8305 0.8307 0.8310
3431.658458 0.8310 0.8310 0.8310 0.8310 0.8310
3434.966351 0.8310 0.8310 0.8310 0.8310 0.8310
3438.274244 0.8310 0.8310 0.8310 0.8310 0.8310
3441.582137 0.8310 0.8310 0.8310 0.8310 0.8310
3444.890030 0.8310 0.8310 0.8310 0.8310 0.8310
3448.197923 0.8310 0.8310 0.8310 0.8310 0.8310
3451.505816 0.8310 0.8310 0.8310 0.8310 0.8310
3454.813710 0.8310 0.8310 0.8310 0.8310 0.8310
3458.121603 0.8310 0.8310 0.8310 0.8310 0.8310
3461.429496 0.8310 0.8310 0.8310 0.8307 0.8305
3464.737389 0.8302 0.8300 0.8300 0.8300 0.8300
3468.045282 0.8300 0.8300 0.8300 0.8300 0.8300
3471.353175 0.8300 0.8300 0.8300 0.8300 0.8300
3474.661068 0.8300 0.8300 0.8300 0.8300 0.8300
3477.968961 0.8300 0.8300 0.8303 0.8305 0.8308
3481.276854 0.8310 0.8310 0.8310 0.8310 0.8310
3484.584747 0.8310 0.8310 0.8310 0.8310 0.8310
3487.892640 0.8310 0.8310 0.8310 0.8310 0.8310
3491.200533 0.8310 0.8310 0.8313 0.8315 0.8318
3494.508426 0.8320 0.8320 0.8320 0.8320 0.8320
3497.816319 0.8320 0.8320 0.8320 0.8320 0.8323
3501.124212 0.8325 0.8328 0.8330 0.8330 0.8330
3504.432105 0.8330 0.8330 0.8330 0.8330 0.8330
3507.739998 0.8330 0.8330 0.8330 0.8330 0.8331
3511.047892 0.8336 0.8341 0.8346 0.8350 0.8350
3514.355785 0.8350 0.8350 0.8350 0.8350 0.8350
3517.663678 0.8350 0.8350 0.8350 0.8350 0.8350
3520.971571 0.8350 0.8350 0.8350 0.8350 0.8350
3524.279464 0.8350 0.8350 0.8350 0.8350 0.8350
3527.587357 0.8350 0.8350 0.8350 0.8350 0.8350
3530.895250 0.8350 0.8350 0.8350 0.8350 0.8350
3534.203143 0.8350 0.8350 0.8350 0.8350 0.8350
3537.511036 0.8350 0.8350 0.8350 0.8350 0.8350
3540.818929 0.8350 0.8350 0.8350 0.8350 0.8350
3544.126822 0.8350 0.8350 0.8350 0.8350 0.8350
3547.434715 0.8350 0.8350 0.8350 0.8350 0.8350
3550.742608 0.8350 0.8350 0.8350 0.8349 0.8347
3554.050501 0.8344 0.8342 0.8340 0.8340 0.8340
3557.358394 0.8340 0.8340 0.8340 0.8340 0.8340
3560.666287 0.8340 0.8340 0.8340 0.8340 0.8340
3563.974180 0.8340 0.8340 0.8340 0.8340 0.8340
3567.282074 0.8340 0.8340 0.8341 0.8344 0.8346
3570.589967 0.8349 0.8350 0.8350 0.8350 0.8350
3573.897860 0.8350 0.8350 0.8350 0.8350 0.8350
3577.205753 0.8350 0.8350 0.8350 0.8350 0.8350
3580.513646 0.8350 0.8350 0.8350 0.8350 0.8350
3583.821539 0.8350 0.8351 0.8354 0.8356 0.8359
3587.129432 0.8361 0.8364 0.8366 0.8369 0.8370
3590.437325 0.8370 0.8370 0.8370 0.8370 0.8370
3593.745218 0.8370 0.8370 0.8370 0.8370 0.8370
3597.053111 0.8370 0.8370 0.8370 0.8370 0.8370
3600.361004 0.8371 0.8374 0.8376 0.8379 0.8381
3603.668897 0.8384 0.8386 0.8389 0.8390 0.8390
3606.976790 0.8390 0.8390 0.8390 0.8390 0.8390
3610.284683 0.8390 0.8391 0.8394 0.8396 0.8399
3613.592576 0.8401 0.8404 0.8406 0.8409 0.8410
3616.900469 0.8410 0.8410 0.8410 0.8410 0.8410
3620.208362 0.8410 0.8410 0.8411 0.8414 0.8417
3623.516256 0.8419 0.8420 0.8420 0.8420 0.8420
3626.824149 0.8420 0.8420 0.8420 0.8420 0.8422
3630.132042 0.8424 0.8427 0.8429 0.8430 0.8430
3633.439935 0.8430 0.8430 0.8430 0.8430 0.8430
3636.747828 0.8430 0.8430 0.8430 0.8430 0.8430
3640.055721 0.8428 0.8426 0.8423 0.8421 0.8420
3643.363614 0.8420 0.8420 0.8420 0.8418 0.8416
3646.671507 0.8413 0.8411 0.8408 0.8406 0.8403
3649.979400 0.8401 0.8400 0.8400 0.8400 0.8400
3653.287293 0.8400 0.8400 0.8400 0.8400 0.8398
3656.595186 0.8396 0.8393 0.8391 0.8390 0.8390
3659.903079 0.8390 0.8390 0.8390 0.8390 0.8390
3663.210972 0.8390 0.8390 0.8390 0.8390 0.8390
3666.518865 0.8390 0.8390 0.8390 0.8390 0.8390
3669.826758 0.8390 0.8390 0.8390 0.8388 0.8386
3673.134651 0.8383 0.8381 0.8380 0.8380 0.8380
3676.442544 0.8380 0.8378 0.8376 0.8373 0.8371
3679.750438 0.8370 0.8370 0.8370 0.8370 0.8370
3683.058331 0.8370 0.8370 0.8370 0.8368 0.8366
3686.366224 0.8363 0.8360 0.8360 0.8360 0.8360
3689.674117 0.8360 0.8358 0.8355 0.8353 0.8350
3692.982010 0.8350 0.8350 0.8350 0.8350 0.8348
3696.289903 0.8345 0.8343 0.8340 0.8340 0.8340
3699.597796 0.8340 0.8340 0.8338 0.8335 0.8333
3702.905689 0.8330 0.8330 0.8330 0.8330 0.8330
3706.213582 0.8330 0.8330 0.8330 0.8330 0.8330
3709.521475 0.8330 0.8330 0.8330 0.8328 0.8325
3712.829368 0.8323 0.8320 0.8320 0.8320 0.8320
3716.137261 0.8320 0.8320 0.8320 0.8320 0.8320
3719.445154 0.8320 0.8320 0.8320 0.8320 0.8320
3722.753047 0.8320 0.8320 0.8320 0.8320 0.8320
3726.060940 0.8320 0.8320 0.8320 0.8320 0.8320
3729.368833 0.8320 0.8320 0.8320 0.8320 0.8320
3732.676726 0.8320 0.8320 0.8320 0.8320 0.8320
3735.984620 0.8320 0.8320 0.8320 0.8320 0.8320
3739.292513 0.8320 0.8320 0.8322 0.8325 0.8328
3742.600406 0.8330 0.8330 0.8330 0.8330 0.8330
3745.908299 0.8330 0.8330 0.8330 0.8330 0.8330
3749.216192 0.8330 0.8330 0.8330 0.8330 0.8330
3752.524085 0.8330 0.8330 0.8330 0.8330 0.8330
3755.831978 0.8330 0.8330 0.8330 0.8330 0.8330
3759.139871 0.8330 0.8330 0.8330 0.8330 0.8330
3762.447764 0.8330 0.8330 0.8330 0.8333 0.8335
3765.755657 0.8338 0.8340 0.8340 0.8340 0.8340
3769.063550 0.8340 0.8340 0.8340 0.8340 0.8340
3772.371443 0.8340 0.8340 0.8340 0.8340 0.8340
3775.679336 0.8340 0.8340 0.8340 0.8340 0.8340
3778.987229 0.8340 0.8340 0.8343 0.8345 0.8348
3782.295122 0.8350 0.8350 0.8350 0.8350 0.8350
3785.603015 0.8350 0.8350 0.8350 0.8350 0.8350
3788.910908 0.8350 0.8350 0.8350 0.8353 0.8355
3792.218802 0.8358 0.8360 0.8360 0.8360 0.8360
3795.526695 0.8360 0.8360 0.8360 0.8360 0.8360
3798.834588 0.8360 0.8360 0.8360 0.8360 0.8360
3802.142481 0.8360 0.8360 0.8360 0.8360 0.8360
3805.450374 0.8360 0.8360 0.8360 0.8360 0.8360
3808.758267 0.8360 0.8360 0.8360 0.8360 0.8360
3812.066160 0.8360 0.8360 0.8360 0.8360 0.8360
3815.374053 0.8360 0.8360 0.8360 0.8360 0.8360
3818.681946 0.8360 0.8361 0.8363 0.8366 0.8368
3821.989839 0.8370 0.8370 0.8370 0.8370 0.8370
3825.297732 0.8370 0.8370 0.8370 0.8370 0.8370
3828.605625 0.8370 0.8370 0.8370 0.8370 0.8370
3831.913518 0.8370 0.8370 0.8370 0.8370 0.8370
3835.221411 0.8370 0.8370 0.8370 0.8370 0.8371
3838.529304 0.8373 0.8376 0.8378 0.8380 0.8380
3841.837197 0.8380 0.8380 0.8381 0.8383 0.8386
3845.145090 0.8388 0.8390 0.8390 0.8390 0.8390
3848.452984 0.8390 0.8390 0.8390 0.8390 0.8390
3851.760877 0.8390 0.8390 0.8390 0.8390 0.8390
3855.068770 0.8390 0.8390 0.8390 0.8390 0.8390
3858.376663 0.8390 0.8390 0.8390 0.8390 0.8390
3861.684556 0.8390 0.8390 0.8390 0.8390 0.8389
3864.992449 0.8386 0.8384 0.8381 0.8380 0.8380
3868.300342 0.8380 0.8380 0.8380 0.8380 0.8380
3871.608235 0.8380 0.8380 0.8380 0.8380 0.8380
3874.916128 0.8379 0.8376 0.8374 0.8371 0.8370
3878.224021 0.8370 0.8370 0.8370 0.8370 0.8370
3881.531914 0.8370 0.8370 0.8370 0.8370 0.8370
3884.839807 0.8370 0.8370 0.8370 0.8370 0.8370
3888.147700 0.8370 0.8370 0.8370 0.8370 0.8370
3891.455593 0.8370 0.8370 0.8370 0.8369 0.8366
3894.763486 0.8364 0.8361 0.8360 0.8360 0.8360
3898.071379 0.8360 0.8360 0.8360 0.8360 0.8360
3901.379272 0.8359 0.8356 0.8354 0.8351 0.8350
3904.687166 0.8350 0.8350 0.8350 0.8350 0.8350
3907.995059 0.8350 0.8350 0.8350 0.8350 0.8350
3911.302952 0.8350 0.8350 0.8350 0.8350 0.8350
3914.610845 0.8348 0.8346 0.8343 0.8341 0.8340
3917.918738 0.8340 0.8340 0.8340 0.8340 0.8340
3921.226631 0.8340 0.8340 0.8338 0.8336 0.8333
3924.534524 0.8331 0.8330 0.8330 0.8330 0.8330
3927.842417 0.8330 0.8330 0.8330 0.8330 0.8328
3931.150310 0.8326 0.8323 0.8321 0.8320 0.8320
3934.458203 0.8320 0.8320 0.8320 0.8320 0.8320
3937.766096 0.8320 0.8318 0.8316 0.8313 0.8311
3941.073989 0.8310 0.8310 0.8310 0.8310 0.8310
3944.381882 0.8310 0.8310 0.8310 0.8310 0.8310
3947.689775 0.8310 0.8310 0.8308 0.8306 0.8303
3950.997668 0.8301 0.8300 0.8300 0.8300 0.8300
3954.305561 0.8298 0.8296 0.8293 0.8291 0.8290
3957.613454 0.8290 0.8290 0.8290 0.8290 0.8290
3960.921348 0.8290 0.8290 0.8290 0.8290 0.8290
3964.229241 0.8290 0.8288 0.8286 0.8283 0.8281
3967.537134 0.8280 0.8280 0.8280 0.8280 0.8278
3970.845027 0.8276 0.8273 0.8270 0.8270 0.8270
3974.152920 0.8270 0.8270 0.8270 0.8270 0.8270
3977.460813 0.8270 0.8270 0.8270 0.8270 0.8270
3980.768706 0.8270 0.8270 0.8270 0.8270 0.8268
3984.076599 0.8265 0.8263 0.8260 0.8260 0.8260
3987.384492 0.8260 0.8260 0.8260 0.8260 0.8260
3990.692385 0.8260 0.8258 0.8255 0.8253 0.8250
3994.000278 0.8250 0.8250 0.8250 0.8250 0.8252
3997.308171 0.8255 0.8257 0.8260 0.8260 0.8260
4000.616064 0.8260 0.8260 0.8260 0.8260 0.8260
4003.923957 0.8260 0.8258 0.8255 0.8253 0.8250
4007.231850 0.8250 0.8250 0.8250 0.8250
##END=
