##TITLE=n-PENTANE
##JCAMP-DX=4.24
##DATA TYPE=INFRARED SPECTRUM
##CLASS=COBLENTZ
##ORIGIN=DOW CHEMICAL COMPANY
##OWNER=COBLENTZ SOCIETY
Collection (C) 2018 copyright by the U.S. Secretary of Commerce
on behalf of the United States of America. All rights reserved.
##DATE=1976/02/11
##NAMES=pentane
##CAS REGISTRY NO=109-66-0
##MOLFORM=C5 H12
##SOURCE REFERENCE=COBLENTZ NO. 10475
##$NIST SOURCE=COBLENTZ
##$NIST IMAGE=cob10475
##SPECTROMETER/DATA SYSTEM=PERKIN-ELMER 180
##INSTRUMENT PARAMETERS=I0 MODE RESOLUTION: 1 CM^-^1 AT 4000 CM^-^1
##STATE=GAS (6 mmHg DILUTED TO A TOTAL PRESSURE OF 600 mmHg WITH N2)
##PATH LENGTH=18 CM CELL
##SAMPLING PROCEDURE=TRANSMISSION
##RESOLUTION=4
##DATA PROCESSING=DIGITIZED BY NIST FROM HARD COPY (FROM TWO SEGMENTS)
##XUNITS=1/CM
##YUNITS=TRANSMITTANCE
##XFACTOR=1.000000
##YFACTOR=1
##DELTAX=1.042444
##FIRSTX=400.894
##LASTX=3998.37
##FIRSTY=0.573
##MAXX=3998.37
##MINX=400.894
##MAXY=0.86
##MINY=0.046
##NPOINTS=3452
##XYDATA=(X++(Y..Y))
400.894000 0.5730 0.5780 0.5790 0.5810 0.5880
406.106218 0.5960 0.6020 0.6090 0.6130 0.6210
411.318436 0.6280 0.6320 0.6350 0.6400 0.6430
416.530654 0.6490 0.6530 0.6590 0.6680 0.6720
421.742872 0.6770 0.6820 0.6850 0.6900 0.6950
426.955090 0.7000 0.7010 0.7030 0.7060 0.7120
432.167308 0.7200 0.7240 0.7260 0.7300 0.7330
437.379526 0.7370 0.7400 0.7420 0.7450 0.7500
442.591744 0.7500 0.7510 0.7530 0.7550 0.7590
447.803962 0.7600 0.7620 0.7640 0.7680 0.7720
453.016180 0.7730 0.7750 0.7800 0.7820 0.7850
458.228398 0.7870 0.7890 0.7910 0.7920 0.7950
463.440616 0.7960 0.7970 0.7980 0.7990 0.8000
468.652834 0.8010 0.8010 0.8040 0.8080 0.8090
473.865052 0.8100 0.8110 0.8110 0.8130 0.8170
479.077270 0.8190 0.8200 0.8220 0.8240 0.8250
484.289488 0.8260 0.8290 0.8290 0.8300 0.8310
489.501706 0.8320 0.8350 0.8360 0.8370 0.8380
494.713924 0.8380 0.8380 0.8380 0.8380 0.8400
499.926142 0.8400 0.8400 0.8410 0.8410 0.8410
505.138360 0.8410 0.8410 0.8410 0.8420 0.8430
510.350578 0.8430 0.8440 0.8450 0.8450 0.8450
515.562796 0.8450 0.8450 0.8450 0.8450 0.8450
520.775015 0.8460 0.8450 0.8450 0.8450 0.8450
525.987233 0.8450 0.8460 0.8460 0.8470 0.8470
531.199451 0.8490 0.8490 0.8500 0.8500 0.8520
536.411669 0.8520 0.8530 0.8510 0.8510 0.8500
541.623887 0.8500 0.8500 0.8500 0.8500 0.8500
546.836105 0.8510 0.8520 0.8530 0.8520 0.8520
552.048323 0.8520 0.8520 0.8520 0.8520 0.8520
557.260541 0.8520 0.8520 0.8520 0.8520 0.8520
562.472759 0.8530 0.8530 0.8540 0.8540 0.8550
567.684977 0.8560 0.8560 0.8560 0.8560 0.8560
572.897195 0.8570 0.8570 0.8560 0.8550 0.8550
578.109413 0.8540 0.8540 0.8550 0.8550 0.8550
583.321631 0.8540 0.8520 0.8510 0.8500 0.8500
588.533849 0.8490 0.8500 0.8500 0.8510 0.8520
593.746067 0.8530 0.8540 0.8540 0.8550 0.8550
598.958285 0.8540 0.8540 0.8530 0.8520 0.8510
604.170503 0.8510 0.8510 0.8500 0.8500 0.8500
609.382721 0.8500 0.8500 0.8500 0.8510 0.8510
614.594939 0.8510 0.8510 0.8520 0.8520 0.8520
619.807157 0.8520 0.8520 0.8520 0.8520 0.8520
625.019375 0.8520 0.8520 0.8520 0.8520 0.8520
630.231593 0.8520 0.8520 0.8520 0.8530 0.8540
635.443811 0.8540 0.8540 0.8540 0.8540 0.8540
640.656029 0.8560 0.8580 0.8590 0.8590 0.8600
645.868247 0.8600 0.8590 0.8580 0.8580 0.8580
651.080465 0.8570 0.8570 0.8570 0.8570 0.8570
656.292683 0.8570 0.8570 0.8560 0.8550 0.8550
661.504901 0.8540 0.8520 0.8500 0.8490 0.8470
666.717119 0.8480 0.8490 0.8510 0.8520 0.8510
671.929337 0.8480 0.8480 0.8480 0.8470 0.8480
677.141555 0.8490 0.8520 0.8530 0.8540 0.8530
682.353773 0.8520 0.8520 0.8510 0.8500 0.8500
687.565991 0.8500 0.8500 0.8490 0.8490 0.8490
692.778209 0.8490 0.8480 0.8470 0.8460 0.8460
697.990427 0.8460 0.8460 0.8460 0.8450 0.8440
703.202645 0.8440 0.8440 0.8430 0.8420 0.8400
708.414863 0.8390 0.8390 0.8390 0.8380 0.8350
713.627081 0.8320 0.8300 0.8280 0.8260 0.8260
718.839299 0.8250 0.8240 0.8230 0.8220 0.8210
724.051517 0.8200 0.8190 0.8180 0.8180 0.8170
729.263735 0.8170 0.8170 0.8180 0.8190 0.8200
734.475953 0.8200 0.8210 0.8200 0.8190 0.8190
739.688171 0.8190 0.8200 0.8220 0.8240 0.8240
744.900389 0.8270 0.8280 0.8290 0.8300 0.8300
750.112607 0.8300 0.8300 0.8310 0.8320 0.8320
755.324826 0.8320 0.8320 0.8310 0.8310 0.8300
760.537044 0.8300 0.8320 0.8340 0.8340 0.8320
765.749262 0.8320 0.8320 0.8340 0.8340 0.8340
770.961480 0.8320 0.8340 0.8340 0.8340 0.8350
776.173698 0.8340 0.8340 0.8340 0.8340 0.8350
781.385916 0.8350 0.8380 0.8390 0.8390 0.8390
786.598134 0.8390 0.8400 0.8400 0.8390 0.8380
791.810352 0.8380 0.8390 0.8390 0.8390 0.8400
797.022570 0.8410 0.8410 0.8410 0.8410 0.8410
802.234788 0.8420 0.8420 0.8420 0.8420 0.8420
807.447006 0.8420 0.8420 0.8410 0.8420 0.8420
812.659224 0.8420 0.8420 0.8430 0.8440 0.8440
817.871442 0.8440 0.8430 0.8420 0.8400 0.8400
823.083660 0.8410 0.8410 0.8410 0.8420 0.8420
828.295878 0.8430 0.8430 0.8420 0.8420 0.8400
833.508096 0.8390 0.8390 0.8390 0.8400 0.8410
838.720314 0.8420 0.8420 0.8430 0.8430 0.8420
843.932532 0.8410 0.8400 0.8400 0.8390 0.8390
849.144750 0.8390 0.8380 0.8370 0.8360 0.8360
854.356968 0.8360 0.8350 0.8350 0.8350 0.8350
859.569186 0.8350 0.8350 0.8340 0.8320 0.8320
864.781404 0.8320 0.8320 0.8340 0.8340 0.8340
869.993622 0.8340 0.8350 0.8370 0.8390 0.8390
875.205840 0.8400 0.8410 0.8420 0.8420 0.8420
880.418058 0.8400 0.8380 0.8380 0.8390 0.8390
885.630276 0.8390 0.8390 0.8390 0.8390 0.8380
890.842494 0.8370 0.8340 0.8300 0.8300 0.8290
896.054712 0.8280 0.8250 0.8240 0.8240 0.8240
901.266930 0.8240 0.8230 0.8230 0.8210 0.8210
906.479148 0.8200 0.8190 0.8180 0.8170 0.8160
911.691366 0.8150 0.8140 0.8140 0.8140 0.8150
916.903584 0.8170 0.8200 0.8210 0.8230 0.8240
922.115802 0.8270 0.8280 0.8290 0.8310 0.8320
927.328020 0.8340 0.8350 0.8360 0.8390 0.8400
932.540238 0.8410 0.8420 0.8440 0.8450 0.8450
937.752456 0.8450 0.8450 0.8450 0.8460 0.8470
942.964674 0.8470 0.8480 0.8470 0.8460 0.8460
948.176892 0.8450 0.8450 0.8450 0.8450 0.8450
953.389110 0.8460 0.8460 0.8460 0.8480 0.8490
958.601328 0.8490 0.8490 0.8490 0.8520 0.8520
963.813546 0.8500 0.8490 0.8460 0.8450 0.8450
969.025764 0.8450 0.8450 0.8460 0.8480 0.8500
974.237982 0.8500 0.8490 0.8460 0.8420 0.8410
979.450200 0.8400 0.8390 0.8390 0.8410 0.8410
984.662418 0.8420 0.8430 0.8430 0.8430 0.8420
989.874636 0.8420 0.8410 0.8410 0.8410 0.8410
995.086855 0.8410 0.8410 0.8410 0.8410 0.8410
1000.299073 0.8410 0.8400 0.8380 0.8380 0.8380
1005.511291 0.8370 0.8360 0.8350 0.8350 0.8350
1010.723509 0.8350 0.8350 0.8340 0.8340 0.8310
1015.935727 0.8290 0.8280 0.8280 0.8280 0.8280
1021.147945 0.8280 0.8280 0.8280 0.8280 0.8280
1026.360163 0.8280 0.8280 0.8290 0.8290 0.8310
1031.572381 0.8310 0.8320 0.8320 0.8320 0.8320
1036.784599 0.8320 0.8320 0.8320 0.8320 0.8320
1041.996817 0.8350 0.8360 0.8350 0.8350 0.8350
1047.209035 0.8350 0.8350 0.8360 0.8370 0.8380
1052.421253 0.8380 0.8380 0.8380 0.8360 0.8350
1057.633471 0.8340 0.8340 0.8320 0.8320 0.8310
1062.845689 0.8310 0.8310 0.8310 0.8310 0.8310
1068.057907 0.8290 0.8290 0.8280 0.8280 0.8290
1073.270125 0.8290 0.8300 0.8310 0.8310 0.8320
1078.482343 0.8340 0.8350 0.8350 0.8350 0.8350
1083.694561 0.8350 0.8350 0.8340 0.8350 0.8350
1088.906779 0.8360 0.8380 0.8390 0.8390 0.8390
1094.118997 0.8380 0.8370 0.8360 0.8360 0.8360
1099.331215 0.8360 0.8350 0.8340 0.8350 0.8360
1104.543433 0.8370 0.8370 0.8340 0.8320 0.8320
1109.755651 0.8310 0.8310 0.8300 0.8300 0.8300
1114.967869 0.8300 0.8300 0.8290 0.8290 0.8270
1120.180087 0.8260 0.8250 0.8240 0.8240 0.8230
1125.392305 0.8230 0.8230 0.8240 0.8240 0.8250
1130.604523 0.8250 0.8250 0.8240 0.8240 0.8240
1135.816741 0.8260 0.8270 0.8280 0.8280 0.8280
1141.028959 0.8280 0.8270 0.8270 0.8270 0.8260
1146.241177 0.8250 0.8240 0.8230 0.8230 0.8230
1151.453395 0.8240 0.8250 0.8250 0.8260 0.8260
1156.665613 0.8280 0.8290 0.8300 0.8310 0.8310
1161.877831 0.8340 0.8350 0.8350 0.8360 0.8370
1167.090049 0.8380 0.8380 0.8380 0.8380 0.8380
1172.302267 0.8380 0.8380 0.8380 0.8390 0.8390
1177.514485 0.8390 0.8390 0.8390 0.8390 0.8400
1182.726703 0.8410 0.8410 0.8400 0.8390 0.8390
1187.938921 0.8380 0.8370 0.8370 0.8370 0.8360
1193.151139 0.8350 0.8340 0.8320 0.8300 0.8300
1198.363357 0.8310 0.8310 0.8320 0.8320 0.8340
1203.575575 0.8320 0.8320 0.8340 0.8340 0.8320
1208.787793 0.8320 0.8310 0.8310 0.8310 0.8300
1214.000011 0.8300 0.8300 0.8310 0.8310 0.8320
1219.212229 0.8320 0.8320 0.8310 0.8300 0.8290
1224.424447 0.8290 0.8290 0.8290 0.8290 0.8280
1229.636666 0.8270 0.8270 0.8270 0.8280 0.8280
1234.848884 0.8280 0.8260 0.8260 0.8260 0.8260
1240.061102 0.8260 0.8270 0.8270 0.8250 0.8250
1245.273320 0.8250 0.8250 0.8280 0.8280 0.8290
1250.485538 0.8290 0.8280 0.8280 0.8280 0.8250
1255.697756 0.8220 0.8210 0.8200 0.8200 0.8210
1260.909974 0.8220 0.8220 0.8240 0.8240 0.8250
1266.122192 0.8250 0.8240 0.8230 0.8230 0.8220
1271.334410 0.8230 0.8240 0.8250 0.8270 0.8280
1276.546628 0.8280 0.8290 0.8300 0.8300 0.8310
1281.758846 0.8310 0.8320 0.8320 0.8320 0.8340
1286.971064 0.8340 0.8320 0.8320 0.8310 0.8300
1292.183282 0.8280 0.8280 0.8290 0.8290 0.8300
1297.395500 0.8300 0.8290 0.8280 0.8240 0.8200
1302.607718 0.8200 0.8210 0.8220 0.8230 0.8240
1307.819936 0.8240 0.8240 0.8250 0.8250 0.8260
1313.032154 0.8260 0.8250 0.8240 0.8240 0.8240
1318.244372 0.8240 0.8250 0.8250 0.8250 0.8260
1323.456590 0.8260 0.8260 0.8270 0.8270 0.8260
1328.668808 0.8250 0.8220 0.8190 0.8180 0.8170
1333.881026 0.8150 0.8130 0.8110 0.8100 0.8090
1339.093244 0.8090 0.8090 0.8090 0.8090 0.8090
1344.305462 0.8090 0.8090 0.8070 0.8040 0.8020
1349.517680 0.8010 0.8000 0.7980 0.7960 0.7950
1354.729898 0.7930 0.7920 0.7910 0.7890 0.7850
1359.942116 0.7830 0.7780 0.7720 0.7690 0.7680
1365.154334 0.7670 0.7650 0.7620 0.7590 0.7560
1370.366552 0.7510 0.7440 0.7380 0.7300 0.7250
1375.578770 0.7210 0.7200 0.7190 0.7180 0.7190
1380.790988 0.7200 0.7210 0.7260 0.7280 0.7290
1386.003206 0.7280 0.7250 0.7230 0.7240 0.7260
1391.215424 0.7290 0.7350 0.7410 0.7470 0.7560
1396.427642 0.7630 0.7700 0.7730 0.7780 0.7790
1401.639860 0.7850 0.7920 0.7940 0.7970 0.8000
1406.852078 0.8020 0.8080 0.8090 0.8100 0.8100
1412.064296 0.8100 0.8090 0.8090 0.8090 0.8090
1417.276514 0.8080 0.8070 0.8070 0.8060 0.8040
1422.488732 0.8020 0.8000 0.7990 0.7980 0.7960
1427.700950 0.7930 0.7900 0.7890 0.7830 0.7800
1432.913168 0.7720 0.7700 0.7610 0.7580 0.7510
1438.125386 0.7450 0.7390 0.7330 0.7270 0.7180
1443.337604 0.7100 0.7010 0.6910 0.6830 0.6780
1448.549822 0.6710 0.6680 0.6620 0.6510 0.6420
1453.762040 0.6350 0.6280 0.6200 0.6180 0.6100
1458.974258 0.6070 0.6020 0.5950 0.5940 0.5950
1464.186477 0.6010 0.6050 0.6080 0.6100 0.6140
1469.398695 0.6180 0.6200 0.6250 0.6340 0.6400
1474.610913 0.6450 0.6500 0.6520 0.6580 0.6640
1479.823131 0.6680 0.6790 0.6870 0.6920 0.7010
1485.035349 0.7110 0.7200 0.7290 0.7320 0.7370
1490.247567 0.7460 0.7530 0.7610 0.7680 0.7710
1495.459785 0.7740 0.7800 0.7830 0.7880 0.7900
1500.672003 0.7930 0.7990 0.8020 0.8090 0.8090
1505.884221 0.8120 0.8150 0.8180 0.8190 0.8200
1511.096439 0.8220 0.8250 0.8250 0.8280 0.8280
1516.308657 0.8290 0.8300 0.8300 0.8300 0.8310
1521.520875 0.8310 0.8310 0.8310 0.8320 0.8320
1526.733093 0.8320 0.8340 0.8360 0.8360 0.8320
1531.945311 0.8310 0.8300 0.8300 0.8300 0.8300
1537.157529 0.8300 0.8290 0.8290 0.8290 0.8300
1542.369747 0.8310 0.8310 0.8300 0.8290 0.8290
1547.581965 0.8290 0.8290 0.8280 0.8280 0.8270
1552.794183 0.8270 0.8260 0.8250 0.8250 0.8250
1558.006401 0.8250 0.8240 0.8240 0.8240 0.8230
1563.218619 0.8230 0.8220 0.8210 0.8200 0.8190
1568.430837 0.8190 0.8180 0.8170 0.8170 0.8160
1573.643055 0.8150 0.8140 0.8130 0.8130 0.8130
1578.855273 0.8120 0.8120 0.8110 0.8110 0.8110
1584.067491 0.8110 0.8120 0.8120 0.8120 0.8130
1589.279709 0.8130 0.8130 0.8130 0.8140 0.8140
1594.491927 0.8140 0.8140 0.8150 0.8150 0.8150
1599.704145 0.8150 0.8150 0.8150 0.8150 0.8160
1604.916363 0.8160 0.8160 0.8170 0.8170 0.8180
1610.128581 0.8180 0.8190 0.8200 0.8200 0.8190
1615.340799 0.8190 0.8190 0.8190 0.8190 0.8190
1620.553017 0.8190 0.8190 0.8190 0.8190 0.8200
1625.765235 0.8200 0.8190 0.8180 0.8160 0.8160
1630.977453 0.8160 0.8170 0.8160 0.8160 0.8140
1636.189671 0.8120 0.8120 0.8110 0.8110 0.8110
1641.401889 0.8110 0.8100 0.8080 0.8070 0.8070
1646.614107 0.8070 0.8080 0.8090 0.8110 0.8120
1651.826325 0.8130 0.8150 0.8180 0.8200 0.8210
1657.038543 0.8220 0.8240 0.8280 0.8290 0.8290
1662.250761 0.8260 0.8260 0.8280 0.8280 0.8300
1667.462979 0.8300 0.8310 0.8310 0.8310 0.8310
1672.675197 0.8320 0.8320 0.8320 0.8320 0.8310
1677.887415 0.8310 0.8310 0.8300 0.8300 0.8300
1683.099633 0.8300 0.8310 0.8320 0.8340 0.8340
1688.311851 0.8350 0.8370 0.8370 0.8370 0.8370
1693.524069 0.8360 0.8360 0.8360 0.8360 0.8370
1698.736287 0.8360 0.8340 0.8320 0.8340 0.8350
1703.948506 0.8320 0.8310 0.8320 0.8350 0.8360
1709.160724 0.8360 0.8350 0.8340 0.8340 0.8310
1714.372942 0.8310 0.8300 0.8290 0.8270 0.8270
1719.585160 0.8290 0.8300 0.8300 0.8290 0.8290
1724.797378 0.8290 0.8300 0.8300 0.8300 0.8300
1730.009596 0.8290 0.8280 0.8260 0.8240 0.8240
1735.221814 0.8240 0.8250 0.8250 0.8260 0.8270
1740.434032 0.8270 0.8280 0.8290 0.8290 0.8300
1745.646250 0.8300 0.8300 0.8310 0.8310 0.8310
1750.858468 0.8310 0.8320 0.8320 0.8320 0.8340
1756.070686 0.8350 0.8350 0.8340 0.8340 0.8340
1761.282904 0.8310 0.8320 0.8360 0.8360 0.8360
1766.495122 0.8360 0.8360 0.8360 0.8360 0.8360
1771.707340 0.8370 0.8390 0.8390 0.8400 0.8410
1776.919558 0.8420 0.8410 0.8410 0.8400 0.8380
1782.131776 0.8380 0.8410 0.8410 0.8410 0.8410
1787.343994 0.8410 0.8410 0.8410 0.8400 0.8400
1792.556212 0.8420 0.8420 0.8420 0.8410 0.8400
1797.768430 0.8400 0.8400 0.8400 0.8410 0.8420
1802.980648 0.8420 0.8420 0.8420 0.8420 0.8420
1808.192866 0.8410 0.8410 0.8410 0.8410 0.8420
1813.405084 0.8420 0.8420 0.8420 0.8410 0.8400
1818.617302 0.8390 0.8400 0.8400 0.8410 0.8410
1823.829520 0.8410 0.8410 0.8410 0.8410 0.8420
1829.041738 0.8420 0.8410 0.8410 0.8410 0.8420
1834.253956 0.8420 0.8420 0.8420 0.8420 0.8420
1839.466174 0.8420 0.8420 0.8430 0.8430 0.8430
1844.678392 0.8440 0.8430 0.8430 0.8430 0.8430
1849.890610 0.8430 0.8430 0.8430 0.8430 0.8430
1855.102828 0.8430 0.8430 0.8430 0.8430 0.8430
1860.315046 0.8430 0.8440 0.8440 0.8430 0.8430
1865.527264 0.8410 0.8400 0.8400 0.8400 0.8400
1870.739482 0.8410 0.8420 0.8430 0.8420 0.8420
1875.951700 0.8420 0.8430 0.8430 0.8430 0.8430
1881.163918 0.8430 0.8430 0.8430 0.8430 0.8420
1886.376136 0.8420 0.8410 0.8400 0.8400 0.8400
1891.588354 0.8390 0.8380 0.8380 0.8400 0.8400
1896.800572 0.8410 0.8420 0.8410 0.8400 0.8400
1902.012790 0.8400 0.8410 0.8410 0.8410 0.8410
1907.225008 0.8420 0.8420 0.8410 0.8410 0.8410
1912.437226 0.8420 0.8420 0.8420 0.8420 0.8420
1917.649444 0.8420 0.8420 0.8410 0.8410 0.8410
1922.861662 0.8410 0.8410 0.8430 0.8430 0.8440
1928.073880 0.8440 0.8430 0.8430 0.8430 0.8410
1933.286098 0.8420 0.8420 0.8430 0.8430 0.8430
1938.498317 0.8430 0.8430 0.8420 0.8420 0.8420
1943.710535 0.8420 0.8420 0.8420 0.8410 0.8410
1948.922753 0.8410 0.8410 0.8410 0.8410 0.8410
1954.134971 0.8410 0.8410 0.8410 0.8420 0.8420
1959.347189 0.8430 0.8430 0.8420 0.8420 0.8420
1964.559407 0.8420 0.8410 0.8420 0.8410 0.8410
1969.771625 0.8410 0.8410 0.8400 0.8400 0.8400
1974.983843 0.8400 0.8410 0.8420 0.8420 0.8430
1980.196061 0.8430 0.8420 0.8410 0.8410 0.8410
1985.408279 0.8410 0.8400 0.8400 0.8390 0.8390
1990.620497 0.8400 0.8410 0.8410 0.8410 0.8410
1995.832715 0.8410 0.8400 0.8400 0.8400 0.8410
2001.044933 0.8415 0.8420 0.8420 0.8420 0.8420
2006.257151 0.8420 0.8420 0.8420 0.8420 0.8420
2011.469369 0.8415 0.8410 0.8405 0.8400 0.8400
2016.681587 0.8400 0.8400 0.8400 0.8395 0.8390
2021.893805 0.8385 0.8380 0.8380 0.8380 0.8380
2027.106023 0.8380 0.8380 0.8380 0.8385 0.8390
2032.318241 0.8396 0.8399 0.8389 0.8381 0.8391
2037.530459 0.8400 0.8400 0.8400 0.8400 0.8400
2042.742677 0.8400 0.8399 0.8394 0.8390 0.8390
2047.954895 0.8391 0.8396 0.8400 0.8400 0.8400
2053.167113 0.8400 0.8400 0.8400 0.8401 0.8406
2058.379331 0.8410 0.8410 0.8409 0.8404 0.8399
2063.591549 0.8394 0.8390 0.8390 0.8390 0.8390
2068.803767 0.8390 0.8390 0.8390 0.8390 0.8389
2074.015985 0.8384 0.8380 0.8380 0.8380 0.8380
2079.228203 0.8380 0.8380 0.8380 0.8380 0.8381
2084.440421 0.8386 0.8390 0.8390 0.8390 0.8390
2089.652639 0.8390 0.8390 0.8390 0.8390 0.8390
2094.864857 0.8390 0.8390 0.8390 0.8390 0.8390
2100.077075 0.8390 0.8390 0.8390 0.8390 0.8390
2105.289293 0.8390 0.8390 0.8390 0.8390 0.8390
2110.501511 0.8390 0.8390 0.8390 0.8390 0.8390
2115.713729 0.8390 0.8390 0.8390 0.8390 0.8390
2120.925947 0.8390 0.8390 0.8390 0.8390 0.8390
2126.138165 0.8390 0.8390 0.8390 0.8390 0.8390
2131.350383 0.8390 0.8390 0.8390 0.8390 0.8388
2136.562601 0.8383 0.8380 0.8380 0.8380 0.8380
2141.774819 0.8382 0.8387 0.8390 0.8390 0.8390
2146.987037 0.8390 0.8390 0.8390 0.8387 0.8382
2152.199255 0.8380 0.8380 0.8377 0.8372 0.8370
2157.411473 0.8370 0.8367 0.8362 0.8360 0.8360
2162.623691 0.8363 0.8368 0.8370 0.8370 0.8367
2167.835909 0.8362 0.8360 0.8360 0.8360 0.8360
2173.048128 0.8360 0.8360 0.8363 0.8368 0.8370
2178.260346 0.8370 0.8373 0.8378 0.8380 0.8380
2183.472564 0.8377 0.8372 0.8367 0.8362 0.8363
2188.684782 0.8368 0.8370 0.8370 0.8370 0.8370
2193.897000 0.8367 0.8362 0.8360 0.8360 0.8357
2199.109218 0.8352 0.8350 0.8350 0.8357 0.8367
2204.321436 0.8373 0.8378 0.8383 0.8389 0.8379
2209.533654 0.8364 0.8356 0.8351 0.8350 0.8350
2214.745872 0.8354 0.8359 0.8360 0.8360 0.8360
2219.958090 0.8360 0.8356 0.8351 0.8339 0.8324
2225.170308 0.8316 0.8311 0.8310 0.8310 0.8329
2230.382526 0.8354 0.8364 0.8369 0.8370 0.8370
2235.594744 0.8366 0.8361 0.8360 0.8360 0.8360
2240.806962 0.8360 0.8360 0.8360 0.8356 0.8351
2246.019180 0.8346 0.8341 0.8344 0.8349 0.8354
2251.231398 0.8359 0.8364 0.8369 0.8374 0.8379
2256.443616 0.8380 0.8380 0.8376 0.8371 0.8366
2261.655834 0.8361 0.8356 0.8351 0.8328 0.8303
2266.868052 0.8300 0.8300 0.8305 0.8310 0.8310
2272.080270 0.8310 0.8315 0.8320 0.8329 0.8339
2277.292488 0.8331 0.8321 0.8315 0.8310 0.8310
2282.504706 0.8310 0.8324 0.8339 0.8345 0.8350
2287.716924 0.8350 0.8350 0.8350 0.8350 0.8350
2292.929142 0.8350 0.8345 0.8340 0.8330 0.8320
2298.141360 0.8310 0.8300 0.8300 0.8300 0.8300
2303.353578 0.8300 0.8310 0.8320 0.8330 0.8340
2308.565796 0.8340 0.8340 0.8340 0.8339 0.8329
2313.778014 0.8320 0.8320 0.8320 0.8320 0.8320
2318.990232 0.8315 0.8310 0.8305 0.8300 0.8295
2324.202450 0.8290 0.8285 0.8280 0.8275 0.8270
2329.414668 0.8270 0.8272 0.8287 0.8300 0.8300
2334.626886 0.8299 0.8294 0.8289 0.8284 0.8279
2339.839104 0.8274 0.8270 0.8270 0.8272 0.8282
2345.051322 0.8291 0.8296 0.8300 0.8300 0.8299
2350.263540 0.8294 0.8290 0.8290 0.8289 0.8284
2355.475758 0.8280 0.8280 0.8279 0.8274 0.8270
2360.687976 0.8270 0.8270 0.8270 0.8270 0.8270
2365.900194 0.8270 0.8270 0.8271 0.8276 0.8280
2371.112412 0.8280 0.8281 0.8286 0.8291 0.8296
2376.324630 0.8300 0.8300 0.8301 0.8306 0.8311
2381.536848 0.8316 0.8320 0.8320 0.8320 0.8320
2386.749066 0.8320 0.8320 0.8318 0.8313 0.8310
2391.961284 0.8310 0.8308 0.8303 0.8300 0.8300
2397.173502 0.8300 0.8300 0.8300 0.8300 0.8298
2402.385720 0.8293 0.8290 0.8290 0.8288 0.8283
2407.597939 0.8280 0.8280 0.8280 0.8280 0.8280
2412.810157 0.8280 0.8280 0.8280 0.8280 0.8280
2418.022375 0.8280 0.8280 0.8282 0.8287 0.8292
2423.234593 0.8297 0.8300 0.8300 0.8302 0.8307
2428.446811 0.8310 0.8310 0.8308 0.8303 0.8300
2433.659029 0.8300 0.8298 0.8293 0.8292 0.8297
2438.871247 0.8298 0.8293 0.8288 0.8283 0.8280
2444.083465 0.8280 0.8280 0.8280 0.8280 0.8280
2449.295683 0.8280 0.8280 0.8277 0.8272 0.8270
2454.507901 0.8270 0.8275 0.8285 0.8290 0.8290
2459.720119 0.8293 0.8298 0.8303 0.8308 0.8313
2464.932337 0.8318 0.8320 0.8320 0.8317 0.8312
2470.144555 0.8310 0.8310 0.8310 0.8310 0.8304
2475.356773 0.8294 0.8287 0.8282 0.8286 0.8296
2480.568991 0.8300 0.8300 0.8306 0.8316 0.8320
2485.781209 0.8320 0.8326 0.8336 0.8340 0.8340
2490.993427 0.8340 0.8340 0.8333 0.8323 0.8320
2496.205645 0.8320 0.8317 0.8312 0.8310 0.8310
2501.417863 0.8310 0.8310 0.8307 0.8301 0.8300
2506.630081 0.8300 0.8296 0.8291 0.8290 0.8290
2511.842299 0.8290 0.8290 0.8286 0.8281 0.8280
2517.054517 0.8280 0.8284 0.8289 0.8294 0.8299
2522.266735 0.8300 0.8300 0.8304 0.8309 0.8310
2527.478953 0.8310 0.8306 0.8301 0.8296 0.8291
2532.691171 0.8290 0.8290 0.8286 0.8281 0.8280
2537.903389 0.8280 0.8284 0.8289 0.8290 0.8290
2543.115607 0.8294 0.8299 0.8296 0.8291 0.8290
2548.327825 0.8290 0.8290 0.8290 0.8290 0.8290
2553.540043 0.8290 0.8290 0.8286 0.8281 0.8280
2558.752261 0.8280 0.8276 0.8271 0.8270 0.8270
2563.964479 0.8265 0.8260 0.8255 0.8250 0.8245
2569.176697 0.8240 0.8240 0.8240 0.8235 0.8230
2574.388915 0.8230 0.8230 0.8230 0.8230 0.8225
2579.601133 0.8220 0.8220 0.8220 0.8220 0.8220
2584.813351 0.8220 0.8220 0.8215 0.8210 0.8205
2590.025569 0.8200 0.8200 0.8200 0.8205 0.8210
2595.237787 0.8210 0.8210 0.8210 0.8210 0.8205
2600.450005 0.8200 0.8185 0.8170 0.8165 0.8160
2605.662223 0.8150 0.8140 0.8135 0.8130 0.8130
2610.874441 0.8130 0.8130 0.8130 0.8135 0.8140
2616.086659 0.8145 0.8150 0.8150 0.8150 0.8150
2621.298877 0.8150 0.8150 0.8150 0.8150 0.8151
2626.511095 0.8156 0.8160 0.8160 0.8158 0.8143
2631.723313 0.8130 0.8130 0.8130 0.8130 0.8131
2636.935531 0.8136 0.8141 0.8146 0.8152 0.8162
2642.147749 0.8170 0.8170 0.8169 0.8164 0.8158
2647.359968 0.8148 0.8140 0.8140 0.8141 0.8146
2652.572186 0.8151 0.8156 0.8160 0.8160 0.8160
2657.784404 0.8160 0.8160 0.8160 0.8160 0.8160
2662.996622 0.8159 0.8154 0.8150 0.8150 0.8149
2668.208840 0.8144 0.8140 0.8140 0.8139 0.8134
2673.421058 0.8130 0.8130 0.8129 0.8124 0.8120
2678.633276 0.8120 0.8120 0.8120 0.8120 0.8120
2683.845494 0.8120 0.8120 0.8120 0.8120 0.8120
2689.057712 0.8120 0.8120 0.8120 0.8120 0.8120
2694.269930 0.8120 0.8120 0.8120 0.8120 0.8120
2699.482148 0.8120 0.8120 0.8120 0.8120 0.8120
2704.694366 0.8120 0.8120 0.8120 0.8120 0.8120
2709.906584 0.8120 0.8120 0.8120 0.8118 0.8113
2715.118802 0.8108 0.8103 0.8100 0.8100 0.8098
2720.331020 0.8093 0.8090 0.8090 0.8088 0.8083
2725.543238 0.8078 0.8073 0.8056 0.8026 0.8008
2730.755456 0.8003 0.7998 0.7993 0.7990 0.7990
2735.967674 0.7983 0.7968 0.7955 0.7945 0.7938
2741.179892 0.7933 0.7928 0.7923 0.7923 0.7928
2746.392110 0.7933 0.7938 0.7943 0.7948 0.7955
2751.604328 0.7965 0.7973 0.7978 0.7985 0.7996
2756.816546 0.8003 0.8008 0.8016 0.8026 0.8033
2762.028764 0.8038 0.8040 0.8040 0.8049 0.8064
2767.240982 0.8067 0.8062 0.8054 0.8044 0.8040
2772.453200 0.8040 0.8037 0.8032 0.8030 0.8030
2777.665418 0.8027 0.8022 0.8017 0.8012 0.8007
2782.877636 0.8002 0.7990 0.7975 0.7970 0.7970
2788.089854 0.7960 0.7945 0.7933 0.7923 0.7917
2793.302072 0.7912 0.7907 0.7902 0.7897 0.7892
2798.514290 0.7887 0.7882 0.7880 0.7880 0.7876
2803.726508 0.7871 0.7866 0.7861 0.7853 0.7843
2808.938726 0.7833 0.7823 0.7813 0.7803 0.7796
2814.150944 0.7791 0.7786 0.7781 0.7753 0.7718
2819.363162 0.7691 0.7666 0.7645 0.7625 0.7593
2824.575380 0.7558 0.7531 0.7505 0.7457 0.7402
2829.787598 0.7346 0.7290 0.7223 0.7153 0.7083
2834.999816 0.7012 0.6926 0.6836 0.6745 0.6655
2840.212034 0.6552 0.6447 0.6333 0.6218 0.6090
2845.424252 0.5960 0.5817 0.5671 0.5535 0.5399
2850.636470 0.5267 0.5135 0.5067 0.5007 0.4942
2855.848688 0.4877 0.4772 0.4661 0.4565 0.4469
2861.060906 0.4274 0.4069 0.3923 0.3782 0.3720
2866.273124 0.3665 0.3582 0.3497 0.3407 0.3317
2871.485342 0.3240 0.3164 0.3002 0.2837 0.2705
2876.697560 0.2575 0.2449 0.2324 0.2320 0.2320
2881.909779 0.2359 0.2399 0.2474 0.2549 0.2580
2887.121997 0.2610 0.2630 0.2650 0.2655 0.2660
2892.334215 0.2670 0.2682 0.2747 0.2813 0.2908
2897.546433 0.3003 0.3083 0.3164 0.3269 0.3370
2902.758651 0.3380 0.3390 0.3390 0.3385 0.3290
2907.970869 0.3194 0.3083 0.2972 0.2852 0.2732
2913.183087 0.2616 0.2501 0.2400 0.2304 0.2238
2918.395305 0.2166 0.2031 0.1900 0.1804 0.1711
2923.607523 0.1631 0.1553 0.1498 0.1443 0.1382
2928.819741 0.1323 0.1268 0.1215 0.1175 0.1136
2934.031959 0.1105 0.1073 0.1033 0.1000 0.1000
2939.244177 0.1007 0.1047 0.1080 0.1080 0.1079
2944.456395 0.1074 0.1068 0.1058 0.1048 0.1038
2949.668613 0.1027 0.1012 0.0998 0.0988 0.0974
2954.880831 0.0943 0.0913 0.0883 0.0850 0.0810
2960.093049 0.0763 0.0693 0.0618 0.0527 0.0460
2965.305267 0.0460 0.0474 0.0529 0.0573 0.0583
2970.517485 0.0594 0.0609 0.0621 0.0626 0.0643
2975.729703 0.0688 0.0734 0.0779 0.0840 0.0935
2980.941921 0.1052 0.1218 0.1372 0.1502 0.1675
2986.154139 0.1935 0.2203 0.2483 0.2809 0.3225
2991.366357 0.3599 0.3890 0.4282 0.4869 0.5346
2996.578575 0.5619 0.5865 0.6066 0.6270 0.6481
3001.790793 0.6679 0.6860 0.7029 0.7179 0.7288
3007.003011 0.7333 0.7382 0.7437 0.7492 0.7547
3012.215229 0.7588 0.7608 0.7632 0.7663 0.7684
3017.427447 0.7694 0.7704 0.7714 0.7725 0.7735
3022.639665 0.7742 0.7747 0.7752 0.7757 0.7760
3027.851883 0.7760 0.7760 0.7760 0.7760 0.7760
3033.064101 0.7760 0.7760 0.7765 0.7775 0.7780
3038.276319 0.7780 0.7783 0.7788 0.7790 0.7790
3043.488537 0.7790 0.7790 0.7790 0.7790 0.7793
3048.700755 0.7798 0.7803 0.7808 0.7813 0.7818
3053.912973 0.7820 0.7820 0.7823 0.7828 0.7830
3059.125191 0.7830 0.7833 0.7838 0.7840 0.7840
3064.337409 0.7843 0.7848 0.7853 0.7858 0.7860
3069.549627 0.7860 0.7866 0.7876 0.7880 0.7880
3074.761845 0.7880 0.7880 0.7880 0.7880 0.7880
3079.974063 0.7880 0.7880 0.7880 0.7883 0.7888
3085.186281 0.7897 0.7907 0.7917 0.7927 0.7933
3090.398499 0.7938 0.7943 0.7948 0.7950 0.7950
3095.610717 0.7950 0.7950 0.7953 0.7959 0.7967
3100.822935 0.7977 0.7987 0.7997 0.8000 0.8000
3106.035153 0.8000 0.8000 0.7996 0.7991 0.7990
3111.247371 0.7990 0.7990 0.7990 0.7990 0.7990
3116.459590 0.7990 0.7990 0.7990 0.7990 0.7990
3121.671808 0.7990 0.7990 0.7990 0.7990 0.7990
3126.884026 0.7994 0.7999 0.8000 0.8000 0.8004
3132.096244 0.8009 0.8006 0.8001 0.8000 0.8000
3137.308462 0.7996 0.7991 0.7982 0.7972 0.7961
3142.520680 0.7951 0.7950 0.7950 0.7950 0.7950
3147.732898 0.7954 0.7959 0.7960 0.7960 0.7956
3152.945116 0.7951 0.7946 0.7941 0.7931 0.7921
3158.157334 0.7920 0.7920 0.7920 0.7920 0.7925
3163.369552 0.7930 0.7930 0.7930 0.7930 0.7930
3168.581770 0.7930 0.7930 0.7925 0.7920 0.7910
3173.793988 0.7900 0.7895 0.7890 0.7885 0.7880
3179.006206 0.7885 0.7890 0.7895 0.7900 0.7900
3184.218424 0.7900 0.7895 0.7890 0.7890 0.7890
3189.430642 0.7885 0.7880 0.7880 0.7880 0.7880
3194.642860 0.7880 0.7885 0.7890 0.7890 0.7890
3199.855078 0.7895 0.7900 0.7900 0.7900 0.7905
3205.067296 0.7910 0.7915 0.7920 0.7920 0.7921
3210.279514 0.7931 0.7941 0.7951 0.7960 0.7960
3215.491732 0.7961 0.7966 0.7971 0.7976 0.7981
3220.703950 0.7986 0.7990 0.7990 0.7991 0.7996
3225.916168 0.8000 0.8000 0.8000 0.8000 0.8000
3231.128386 0.8000 0.8000 0.8000 0.7999 0.7994
3236.340604 0.7990 0.7990 0.7990 0.7990 0.7989
3241.552822 0.7984 0.7980 0.7980 0.7979 0.7974
3246.765040 0.7970 0.7970 0.7970 0.7970 0.7970
3251.977258 0.7970 0.7970 0.7970 0.7969 0.7964
3257.189476 0.7960 0.7960 0.7960 0.7960 0.7960
3262.401694 0.7960 0.7960 0.7960 0.7960 0.7960
3267.613912 0.7959 0.7954 0.7950 0.7950 0.7950
3272.826130 0.7950 0.7948 0.7943 0.7940 0.7940
3278.038348 0.7937 0.7927 0.7918 0.7913 0.7908
3283.250566 0.7903 0.7900 0.7900 0.7900 0.7900
3288.462784 0.7902 0.7907 0.7910 0.7910 0.7910
3293.675002 0.7910 0.7910 0.7910 0.7912 0.7917
3298.887220 0.7920 0.7920 0.7918 0.7913 0.7910
3304.099438 0.7910 0.7910 0.7910 0.7908 0.7903
3309.311656 0.7900 0.7900 0.7900 0.7900 0.7898
3314.523874 0.7893 0.7890 0.7890 0.7890 0.7890
3319.736092 0.7890 0.7890 0.7890 0.7890 0.7890
3324.948310 0.7890 0.7890 0.7890 0.7892 0.7897
3330.160528 0.7900 0.7900 0.7900 0.7900 0.7900
3335.372746 0.7900 0.7903 0.7908 0.7910 0.7910
3340.584964 0.7913 0.7918 0.7920 0.7920 0.7917
3345.797182 0.7912 0.7907 0.7902 0.7897 0.7892
3351.009400 0.7887 0.7882 0.7880 0.7880 0.7880
3356.221619 0.7880 0.7877 0.7872 0.7870 0.7870
3361.433837 0.7867 0.7862 0.7860 0.7860 0.7857
3366.646055 0.7852 0.7850 0.7850 0.7850 0.7850
3371.858273 0.7850 0.7850 0.7847 0.7842 0.7840
3377.070491 0.7840 0.7840 0.7840 0.7840 0.7840
3382.282709 0.7840 0.7840 0.7840 0.7840 0.7840
3387.494927 0.7840 0.7840 0.7840 0.7840 0.7840
3392.707145 0.7840 0.7840 0.7840 0.7840 0.7844
3397.919363 0.7849 0.7850 0.7850 0.7850 0.7850
3403.131581 0.7850 0.7850 0.7850 0.7850 0.7854
3408.343799 0.7859 0.7860 0.7860 0.7860 0.7860
3413.556017 0.7860 0.7860 0.7860 0.7860 0.7860
3418.768235 0.7860 0.7864 0.7869 0.7874 0.7879
3423.980453 0.7884 0.7889 0.7890 0.7890 0.7894
3429.192671 0.7899 0.7904 0.7909 0.7910 0.7910
3434.404889 0.7910 0.7910 0.7914 0.7919 0.7920
3439.617107 0.7920 0.7916 0.7911 0.7910 0.7910
3444.829325 0.7910 0.7910 0.7914 0.7919 0.7920
3450.041543 0.7920 0.7920 0.7920 0.7925 0.7930
3455.253761 0.7935 0.7940 0.7945 0.7950 0.7950
3460.465979 0.7950 0.7955 0.7960 0.7960 0.7960
3465.678197 0.7965 0.7970 0.7970 0.7970 0.7970
3470.890415 0.7970 0.7970 0.7970 0.7975 0.7980
3476.102633 0.7985 0.7990 0.7995 0.8000 0.8005
3481.314851 0.8010 0.8010 0.8010 0.8010 0.8010
3486.527069 0.8015 0.8020 0.8020 0.8020 0.8020
3491.739287 0.8020 0.8020 0.8020 0.8020 0.8020
3496.951505 0.8015 0.8010 0.8010 0.8010 0.8010
3502.163723 0.8010 0.8010 0.8010 0.8015 0.8020
3507.375941 0.8020 0.8020 0.8020 0.8020 0.8020
3512.588159 0.8021 0.8026 0.8030 0.8030 0.8030
3517.800377 0.8030 0.8031 0.8036 0.8041 0.8051
3523.012595 0.8060 0.8060 0.8061 0.8066 0.8071
3528.224813 0.8076 0.8080 0.8080 0.8080 0.8080
3533.437031 0.8080 0.8080 0.8081 0.8086 0.8090
3538.649249 0.8090 0.8090 0.8090 0.8090 0.8090
3543.861467 0.8090 0.8090 0.8090 0.8090 0.8090
3549.073685 0.8090 0.8090 0.8090 0.8090 0.8090
3554.285903 0.8090 0.8090 0.8090 0.8090 0.8090
3559.498121 0.8090 0.8090 0.8090 0.8090 0.8090
3564.710339 0.8090 0.8090 0.8090 0.8090 0.8090
3569.922557 0.8090 0.8090 0.8090 0.8090 0.8090
3575.134775 0.8090 0.8090 0.8090 0.8090 0.8090
3580.346993 0.8090 0.8090 0.8090 0.8090 0.8090
3585.559211 0.8090 0.8090 0.8090 0.8090 0.8090
3590.771430 0.8090 0.8090 0.8090 0.8090 0.8090
3595.983648 0.8090 0.8090 0.8090 0.8090 0.8090
3601.195866 0.8090 0.8090 0.8090 0.8092 0.8097
3606.408084 0.8100 0.8100 0.8098 0.8093 0.8090
3611.620302 0.8090 0.8090 0.8090 0.8090 0.8090
3616.832520 0.8090 0.8090 0.8090 0.8090 0.8090
3622.044738 0.8090 0.8090 0.8090 0.8092 0.8097
3627.256956 0.8098 0.8092 0.8087 0.8082 0.8083
3632.469174 0.8088 0.8090 0.8090 0.8090 0.8090
3637.681392 0.8095 0.8105 0.8113 0.8118 0.8117
3642.893610 0.8112 0.8107 0.8102 0.8100 0.8100
3648.105828 0.8100 0.8100 0.8103 0.8108 0.8110
3653.318046 0.8110 0.8107 0.8102 0.8097 0.8092
3658.530264 0.8087 0.8082 0.8083 0.8088 0.8090
3663.742482 0.8090 0.8090 0.8090 0.8087 0.8082
3668.954700 0.8077 0.8072 0.8067 0.8062 0.8063
3674.166918 0.8068 0.8073 0.8078 0.8080 0.8080
3679.379136 0.8080 0.8080 0.8080 0.8080 0.8080
3684.591354 0.8080 0.8080 0.8080 0.8080 0.8080
3689.803572 0.8076 0.8071 0.8070 0.8070 0.8070
3695.015790 0.8070 0.8070 0.8070 0.8070 0.8070
3700.228008 0.8070 0.8070 0.8077 0.8088 0.8090
3705.440226 0.8090 0.8094 0.8099 0.8100 0.8100
3710.652444 0.8100 0.8100 0.8096 0.8091 0.8090
3715.864662 0.8090 0.8090 0.8090 0.8094 0.8099
3721.076880 0.8100 0.8100 0.8096 0.8091 0.8090
3726.289098 0.8090 0.8086 0.8081 0.8080 0.8080
3731.501316 0.8080 0.8080 0.8080 0.8080 0.8080
3736.713534 0.8080 0.8080 0.8080 0.8084 0.8089
3741.925752 0.8090 0.8090 0.8090 0.8090 0.8090
3747.137970 0.8090 0.8090 0.8090 0.8090 0.8090
3752.350188 0.8090 0.8090 0.8085 0.8080 0.8075
3757.562406 0.8070 0.8070 0.8070 0.8070 0.8070
3762.774624 0.8070 0.8070 0.8070 0.8070 0.8070
3767.986842 0.8070 0.8070 0.8070 0.8070 0.8070
3773.199060 0.8070 0.8070 0.8070 0.8070 0.8070
3778.411278 0.8070 0.8070 0.8070 0.8070 0.8070
3783.623496 0.8075 0.8080 0.8080 0.8080 0.8085
3788.835714 0.8090 0.8090 0.8090 0.8095 0.8100
3794.047932 0.8100 0.8100 0.8100 0.8100 0.8100
3799.260150 0.8100 0.8100 0.8100 0.8100 0.8100
3804.472368 0.8095 0.8090 0.8090 0.8090 0.8090
3809.684586 0.8089 0.8084 0.8080 0.8080 0.8080
3814.896804 0.8080 0.8080 0.8080 0.8079 0.8074
3820.109022 0.8070 0.8070 0.8070 0.8070 0.8069
3825.321241 0.8064 0.8060 0.8060 0.8060 0.8060
3830.533459 0.8060 0.8060 0.8060 0.8060 0.8060
3835.745677 0.8060 0.8061 0.8066 0.8070 0.8070
3840.957895 0.8071 0.8076 0.8080 0.8080 0.8080
3846.170113 0.8080 0.8081 0.8086 0.8090 0.8090
3851.382331 0.8090 0.8090 0.8089 0.8084 0.8080
3856.594549 0.8080 0.8079 0.8074 0.8069 0.8064
3861.806767 0.8060 0.8060 0.8057 0.8047 0.8040
3867.018985 0.8040 0.8038 0.8033 0.8030 0.8030
3872.231203 0.8030 0.8030 0.8030 0.8030 0.8030
3877.443421 0.8030 0.8032 0.8037 0.8040 0.8040
3882.655639 0.8040 0.8040 0.8040 0.8040 0.8040
3887.867857 0.8040 0.8040 0.8040 0.8040 0.8040
3893.080075 0.8040 0.8040 0.8040 0.8040 0.8040
3898.292293 0.8040 0.8040 0.8040 0.8040 0.8040
3903.504511 0.8040 0.8040 0.8044 0.8054 0.8060
3908.716729 0.8060 0.8060 0.8060 0.8055 0.8045
3913.928947 0.8040 0.8040 0.8038 0.8033 0.8032
3919.141165 0.8037 0.8040 0.8040 0.8045 0.8055
3924.353383 0.8060 0.8060 0.8060 0.8060 0.8063
3929.565601 0.8068 0.8067 0.8062 0.8060 0.8060
3934.777819 0.8060 0.8060 0.8060 0.8060 0.8063
3939.990037 0.8068 0.8070 0.8070 0.8070 0.8070
3945.202255 0.8070 0.8070 0.8067 0.8062 0.8060
3950.414473 0.8060 0.8054 0.8044 0.8040 0.8040
3955.626691 0.8040 0.8040 0.8046 0.8056 0.8060
3960.838909 0.8060 0.8060 0.8060 0.8054 0.8044
3966.051127 0.8040 0.8040 0.8037 0.8032 0.8027
3971.263345 0.8022 0.8020 0.8020 0.8020 0.8020
3976.475563 0.8023 0.8028 0.8040 0.8055 0.8060
3981.687781 0.8060 0.8053 0.8043 0.8040 0.8040
3986.899999 0.8033 0.8023 0.8020 0.8020 0.8020
3992.112217 0.8020 0.8020 0.8020 0.8020 0.8020
3997.324435 0.8020 0.8020
##END=
