##TITLE=PROPANE, 1,2-DIBROMO-3-CHLORO-
##JCAMP-DX=4.24
##DATA TYPE=INFRARED SPECTRUM
##CLASS=COBLENTZ III
##ORIGIN=DOW CHEMICAL COMPANY
##OWNER=COBLENTZ SOCIETY
Collection (C) 2018 copyright by the U.S. Secretary of Commerce
on behalf of the United States of America. All rights reserved.
##DATE=1960/02/02
##NAMES=1,2-dibromo-3-chloropropane
##CAS REGISTRY NO=96-12-8
##MOLFORM=C3 H5 Br2 Cl
##SOURCE REFERENCE=COBLENTZ NO. 10672
##$NIST SOURCE=COBLENTZ
##$NIST IMAGE=cob10672
##SPECTROMETER/DATA SYSTEM=DOW KBr FOREPRISM-GRATING
##INSTRUMENT PARAMETERS=BLAZED AT 3.5, 12.0, 20.0 MICRON, CHANGED AT 5.0, 7.5, 14.9 MICRON
##STATE=SOLUTION (10% IN CCl4 FOR 3800-1330, 10% IN CS2 FOR 1330-450 CM^-^1)
##PATH LENGTH=0.011, 0.011 CM
$$SPECTRAL CONTAMINATION DUE TO CCl4 AROUND 1550 CM^-^1
$$ SEE SPECTRUM NO. 10673 FOR "NEAT" STATE
##SAMPLING PROCEDURE=TRANSMISSION
##RESOLUTION=4
##DATA PROCESSING=DIGITIZED BY NIST FROM HARD COPY (FROM TWO SEGMENTS)
##XUNITS=1/CM
##YUNITS=TRANSMITTANCE
##XFACTOR=1.000000
##YFACTOR=1
##DELTAX=0.949971
##FIRSTX=424.953
##LASTX=3798.3
##FIRSTY=0.923
##MAXX=3798.3
##MINX=424.953
##MAXY=1.038
##MINY=0.310368
##NPOINTS=3552
##XYDATA=(X++(Y..Y))
424.953000 0.9230 0.9230 0.9230 0.9230 0.9230
429.702853 0.9230 0.9230 0.9230 0.9230 0.9230
434.452706 0.9210 0.9210 0.9210 0.9210 0.9210
439.202560 0.9210 0.9210 0.9210 0.9210 0.9200
443.952413 0.9200 0.9200 0.9180 0.9180 0.9180
448.702266 0.9180 0.9170 0.9170 0.9170 0.9150
453.452119 0.9150 0.9140 0.9120 0.9120 0.9120
458.201973 0.9110 0.9110 0.9110 0.9110 0.9110
462.951826 0.9120 0.9180 0.9350 0.9420 0.9540
467.701679 0.9550 0.9580 0.9630 0.9640 0.9680
472.451532 0.9730 0.9770 0.9790 0.9800 0.9800
477.201386 0.9820 0.9830 0.9850 0.9860 0.9880
481.951239 0.9890 0.9910 0.9940 0.9970 1.0000
486.701092 1.0000 1.0010 1.0020 1.0020 1.0040
491.450945 1.0040 1.0020 1.0010 1.0000 1.0000
496.200799 0.9980 0.9940 0.9910 0.9890 0.9820
500.950652 0.9630 0.9420 0.9170 0.8980 0.8770
505.700505 0.8740 0.8750 0.8959 0.9169 0.9359
510.450358 0.9770 1.0110 1.0140 1.0170 1.0220
515.200211 1.0230 1.0260 1.0280 1.0310 1.0330
519.950065 1.0350 1.0360 1.0360 1.0380 1.0380
524.699918 1.0380 1.0380 1.0380 1.0360 1.0360
529.449771 1.0360 1.0350 1.0330 1.0330 1.0320
534.199624 1.0310 1.0310 1.0310 1.0290 1.0290
538.949478 1.0290 1.0280 1.0280 1.0280 1.0280
543.699331 1.0280 1.0280 1.0280 1.0260 1.0260
548.449184 1.0260 1.0260 1.0250 1.0230 1.0220
553.199037 1.0170 1.0160 1.0140 1.0130 1.0080
557.948891 1.0040 1.0010 0.9970 0.9910 0.9830
562.698744 0.9680 0.9580 0.9361 0.9240 0.8991
567.448597 0.8720 0.8360 0.8050 0.7171 0.6541
572.198450 0.5902 0.5302 0.4593 0.3873 0.3104
576.948304 0.3111 0.3530 0.3640 0.5049 0.5929
581.698157 0.6479 0.6520 0.6580 0.6600 0.6630
586.448010 0.7441 0.8240 0.8740 0.9120 0.9370
591.197863 0.9430 0.9430 0.9370 0.9260 0.9150
595.947716 0.9120 0.9110 0.9120 0.9230 0.9350
600.697570 0.9400 0.9629 0.9799 1.0039 1.0050
605.447423 1.0080 1.0170 1.0230 1.0260 1.0260
610.197276 1.0280 1.0290 1.0310 1.0310 1.0320
614.947129 1.0320 1.0320 1.0320 1.0320 1.0310
619.696983 1.0290 1.0290 1.0290 1.0280 1.0280
624.446836 1.0260 1.0250 1.0250 1.0190 1.0170
629.196689 1.0160 1.0130 1.0100 1.0020 1.0020
633.946542 1.0010 0.9950 0.9890 0.9830 0.9790
638.696396 0.9700 0.9630 0.9580 0.9451 0.9142
643.446249 0.9050 0.8840 0.8610 0.8310 0.8000
648.196102 0.7880 0.7870 0.7850 0.7840 0.7760
652.945955 0.7750 0.7660 0.7500 0.7190 0.7130
657.695809 0.7130 0.7250 0.7400 0.7789 0.7999
662.445662 0.8490 0.8680 0.8770 0.8990 0.9090
667.195515 0.9170 0.9330 0.9549 0.9570 0.9570
671.945368 0.9550 0.9490 0.9490 0.9480 0.9420
676.695222 0.9350 0.9330 0.9330 0.9350 0.9450
681.445075 0.9580 0.9770 0.9820 0.9850 0.9880
686.194928 0.9940 0.9950 1.0000 1.0020 1.0040
690.944781 1.0070 1.0080 1.0080 1.0070 1.0070
695.694634 1.0050 1.0040 1.0040 1.0020 1.0010
700.444488 1.0000 0.9970 0.9940 0.9940 0.9920
705.194341 0.9890 0.9850 0.9800 0.9790 0.9710
709.944194 0.9670 0.9640 0.9550 0.9460 0.9350
714.694047 0.9320 0.9120 0.8921 0.8771 0.8551
719.443901 0.8360 0.8210 0.7930 0.7420 0.7260
724.193754 0.7130 0.6980 0.6611 0.6202 0.5762
728.943607 0.5240 0.5190 0.5240 0.5390 0.5560
733.693460 0.5650 0.5800 0.5890 0.5950 0.6179
738.443314 0.6362 0.7500 0.7970 0.8520 0.8810
743.193167 0.9090 0.9140 0.9150 0.9150 0.9150
747.943020 0.9150 0.9150 0.9170 0.9200 0.9260
752.692873 0.9360 0.9460 0.9550 0.9610 0.9729
757.442727 0.9760 0.9770 0.9770 0.9790 0.9800
762.192580 0.9800 0.9860 0.9880 0.9880 0.9890
766.942433 0.9910 0.9910 0.9910 0.9910 0.9910
771.692286 0.9890 0.9890 0.9890 0.9910 0.9910
776.442139 1.0010 1.0040 1.0070 1.0080 1.0080
781.191993 1.0070 1.0070 1.0040 1.0040 1.0020
785.941846 1.0020 1.0020 1.0020 1.0040 1.0040
790.691699 1.0050 1.0050 1.0080 1.0110 1.0110
795.441552 1.0130 1.0130 1.0130 1.0130 1.0130
800.191406 1.0140 1.0160 1.0190 1.0190 1.0200
804.941259 1.0200 1.0220 1.0220 1.0220 1.0220
809.691112 1.0220 1.0220 1.0200 1.0200 1.0200
814.440965 1.0190 1.0190 1.0190 1.0190 1.0170
819.190819 1.0160 1.0160 1.0140 1.0130 1.0130
823.940672 1.0130 1.0110 1.0110 1.0110 1.0110
828.690525 1.0100 1.0080 1.0040 1.0020 1.0020
833.440378 1.0010 1.0000 0.9950 0.9890 0.9850
838.190232 0.9820 0.9790 0.9740 0.9571 0.9550
842.940085 0.9490 0.9330 0.9210 0.9110 0.8900
847.689938 0.8770 0.8471 0.8241 0.7851 0.7511
852.439791 0.7189 0.6860 0.6860 0.7000 0.7260
857.189644 0.7340 0.7480 0.7709 0.7780 0.7820
861.939498 0.7820 0.7790 0.7760 0.7750 0.7630
866.689351 0.7570 0.7470 0.7161 0.6971 0.6771
871.439204 0.6270 0.6271 0.7310 0.7810 0.8160
876.189057 0.8360 0.8530 0.8610 0.8640 0.8640
880.938911 0.8590 0.8520 0.8500 0.8520 0.8610
885.688764 0.8710 0.8930 0.9060 0.9120 0.9140
890.438617 0.9120 0.9060 0.8950 0.8870 0.8740
895.188470 0.8500 0.8240 0.8240 0.8310 0.8519
899.938324 0.8640 0.8950 0.9120 0.9330 0.9360
904.688177 0.9450 0.9600 0.9660 0.9670 0.9680
909.438030 0.9670 0.9580 0.9420 0.9230 0.9120
914.187883 0.9140 0.9330 0.9540 0.9630 0.9789
918.937737 0.9890 1.0000 1.0020 1.0070 1.0140
923.687590 1.0160 1.0160 1.0160 1.0160 1.0140
928.437443 1.0140 1.0160 1.0170 1.0190 1.0200
933.187296 1.0220 1.0220 1.0230 1.0230 1.0230
937.937149 1.0230 1.0230 1.0230 1.0230 1.0250
942.687003 1.0260 1.0260 1.0260 1.0260 1.0260
947.436856 1.0260 1.0260 1.0260 1.0260 1.0250
952.186709 1.0230 1.0230 1.0230 1.0220 1.0220
956.936562 1.0170 1.0140 1.0100 1.0050 1.0010
961.686416 1.0000 0.9920 0.9830 0.9800 0.9601
966.436269 0.9519 0.9259 0.8899 0.8470 0.8160
971.186122 0.8180 0.8500 0.8580 0.9199 0.9539
975.935975 0.9540 0.9510 0.9510 0.9490 0.9490
980.685829 0.9510 0.9570 0.9660 1.0009 1.0070
985.435682 1.0110 1.0160 1.0170 1.0190 1.0190
990.185535 1.0190 1.0220 1.0250 1.0250 1.0230
994.935388 1.0230 1.0220 1.0190 1.0190 1.0170
999.685242 1.0160 1.0160 1.0140 1.0140 1.0140
1004.435095 1.0190 1.0230 1.0250 1.0250 1.0250
1009.184948 1.0250 1.0250 1.0250 1.0250 1.0230
1013.934801 1.0220 1.0170 1.0160 1.0130 1.0110
1018.684655 1.0100 1.0110 1.0140 1.0170 1.0200
1023.434508 1.0220 1.0220 1.0230 1.0230 1.0250
1028.184361 1.0260 1.0260 1.0260 1.0260 1.0260
1032.934214 1.0250 1.0250 1.0250 1.0250 1.0250
1037.684067 1.0230 1.0230 1.0230 1.0230 1.0230
1042.433921 1.0230 1.0230 1.0230 1.0250 1.0250
1047.183774 1.0250 1.0250 1.0250 1.0250 1.0250
1051.933627 1.0250 1.0230 1.0230 1.0230 1.0230
1056.683480 1.0220 1.0220 1.0220 1.0200 1.0190
1061.433334 1.0190 1.0190 1.0170 1.0170 1.0160
1066.183187 1.0160 1.0130 1.0110 1.0100 1.0070
1070.933040 1.0050 1.0020 1.0000 0.9980 0.9970
1075.682893 0.9950 0.9940 0.9920 0.9890 0.9890
1080.432747 0.9880 0.9880 0.9880 0.9880 0.9890
1085.182600 0.9910 0.9940 0.9950 0.9970 0.9980
1089.932453 0.9980 1.0000 1.0000 1.0000 1.0010
1094.682306 1.0010 1.0020 1.0020 1.0050 1.0080
1099.432160 1.0110 1.0130 1.0140 1.0140 1.0140
1104.182013 1.0140 1.0140 1.0140 1.0140 1.0130
1108.931866 1.0130 1.0110 1.0110 1.0070 1.0040
1113.681719 1.0000 0.9950 0.9910 0.9850 0.9800
1118.431572 0.9569 0.9290 0.9060 0.9050 0.9200
1123.181426 0.9240 0.9540 0.9570 0.9740 0.9760
1127.931279 0.9730 0.9680 0.9660 0.9630 0.9630
1132.681132 0.9680 0.9800 0.9800 0.9770 0.9760
1137.430985 0.9710 0.9630 0.9580 0.9460 0.9270
1142.180839 0.8840 0.8620 0.8620 0.8720 0.8830
1146.930692 0.8980 0.9120 0.9230 0.9230 0.9210
1151.680545 0.9180 0.9170 0.9140 0.9150 0.9200
1156.430398 0.9230 0.9290 0.9260 0.9210 0.9090
1161.180252 0.8840 0.8550 0.8161 0.7531 0.6892
1165.930105 0.5980 0.5980 0.6150 0.6351 0.7620
1170.679958 0.8269 0.8709 0.8989 0.9150 0.9419
1175.429811 0.9480 0.9550 0.9600 0.9640 0.9640
1180.179665 0.9630 0.9630 0.9600 0.9580 0.9600
1184.929518 0.9630 0.9680 0.9700 0.9680 0.9670
1189.679371 0.9630 0.9570 0.9520 0.9430 0.9350
1194.429224 0.9140 0.8960 0.8720 0.8360 0.7540
1199.179077 0.6980 0.6421 0.6420 0.7168 0.7529
1203.928931 0.8100 0.8210 0.8240 0.8380 0.8560
1208.678784 0.8900 0.9030 0.9120 0.9150 0.9170
1213.428637 0.9170 0.9120 0.9060 0.8920 0.8810
1218.178490 0.8440 0.8020 0.8020 0.8339 0.8410
1222.928344 0.8561 0.8920 0.9080 0.9120 0.9350
1227.678197 0.9540 0.9600 0.9630 0.9630 0.9610
1232.428050 0.9580 0.9570 0.9520 0.9420 0.9320
1237.177903 0.9200 0.8950 0.8740 0.8521 0.8271
1241.927757 0.8089 0.7880 0.7870 0.8020 0.8090
1246.677610 0.8330 0.8340 0.8330 0.8250 0.8160
1251.427463 0.7809 0.7379 0.7110 0.6829 0.6120
1256.177316 0.6110 0.7868 0.8489 0.8749 0.8929
1260.927170 0.9090 0.9150 0.9240 0.9320 0.9390
1265.677023 0.9400 0.9390 0.9390 0.9360 0.9330
1270.426876 0.9260 0.9170 0.8990 0.8870 0.8530
1275.176729 0.8310 0.8220 0.8220 0.8400 0.8590
1279.926582 0.8770 0.8930 0.8960 0.8980 0.8950
1284.676436 0.8840 0.8740 0.8530 0.8151 0.7562
1289.426289 0.7370 0.7381 0.8121 0.8590 0.8980
1294.176142 0.9370 0.9430 0.9480 0.9550 0.9610
1298.925995 0.9700 0.9760 0.9790 0.9800 0.9850
1303.675849 0.9860 0.9860 0.9860 0.9860 0.9860
1308.425702 0.9860 0.9860 0.9860 0.9850 0.9850
1313.175555 0.9850 0.9850 0.9830 0.9820 0.9790
1317.925408 0.9770 0.9730 0.9680 0.9660 0.9640
1322.675262 0.9610 0.9580 0.9570 0.9540 0.9460
1327.425115 0.9350 0.9200 0.9110 0.8900 0.8740
1332.174968 0.8330 0.7970 0.7760 0.7750 0.7750
1336.924821 0.7750 0.7750 0.7739 0.7340 0.7340
1341.674675 0.7970 0.8620 0.8930 0.8990 0.9120
1346.424528 0.9241 0.9540 0.9600 0.9640 0.9760
1351.174381 0.9800 0.9820 0.9830 0.9830 0.9830
1355.924234 0.9830 0.9830 0.9830 0.9830 0.9830
1360.674087 0.9830 0.9850 0.9850 0.9850 0.9860
1365.423941 0.9860 0.9860 0.9880 0.9890 0.9890
1370.173794 0.9890 0.9890 0.9880 0.9880 0.9890
1374.923647 0.9920 0.9920 0.9920 0.9920 0.9910
1379.673500 0.9910 0.9910 0.9920 0.9920 0.9920
1384.423354 0.9920 0.9940 0.9940 0.9940 0.9910
1389.173207 0.9890 0.9880 0.9880 0.9860 0.9860
1393.923060 0.9850 0.9850 0.9830 0.9830 0.9820
1398.672913 0.9820 0.9820 0.9820 0.9800 0.9800
1403.422767 0.9800 0.9790 0.9760 0.9760 0.9710
1408.172620 0.9670 0.9610 0.9600 0.9580 0.9540
1412.922473 0.9460 0.9330 0.9240 0.9180 0.9120
1417.672326 0.8840 0.8700 0.8021 0.7322 0.6612
1422.422180 0.7420 0.7409 0.7140 0.7060 0.6950
1427.172033 0.6640 0.5610 0.4801 0.3971 0.5357
1431.921886 0.6450 0.6580 0.6600 0.6580 0.6460
1436.671739 0.6170 0.5610 0.5210 0.5210 0.6357
1441.421593 0.7591 0.7780 0.7810 0.7970 0.8330
1446.171446 0.8710 0.8920 0.9020 0.9140 0.9349
1450.921299 0.9420 0.9460 0.9480 0.9510 0.9520
1455.671152 0.9570 0.9580 0.9610 0.9610 0.9610
1460.421005 0.9630 0.9630 0.9640 0.9640 0.9640
1465.170859 0.9640 0.9640 0.9640 0.9640 0.9640
1469.920712 0.9640 0.9630 0.9630 0.9610 0.9600
1474.670565 0.9600 0.9580 0.9570 0.9550 0.9540
1479.420418 0.9520 0.9510 0.9490 0.9450 0.9420
1484.170272 0.9370 0.9360 0.9350 0.9350 0.9330
1488.920125 0.9320 0.9300 0.9260 0.9200 0.9170
1493.669978 0.9140 0.9120 0.9020 0.8990 0.8960
1498.419831 0.8900 0.8860 0.8860 0.8720 0.8590
1503.169685 0.8530 0.8470 0.8440 0.8410 0.8340
1507.919538 0.8190 0.8120 0.7990 0.7970 0.7940
1512.669391 0.7910 0.7870 0.7820 0.7760 0.7660
1517.419244 0.7590 0.7570 0.7450 0.7440 0.7410
1522.169098 0.7370 0.7280 0.7230 0.7190 0.7140
1526.918951 0.7100 0.7070 0.7010 0.6950 0.6940
1531.668804 0.6790 0.6760 0.6640 0.6490 0.6360
1536.418657 0.6210 0.6100 0.6040 0.5950 0.5800
1541.168510 0.5620 0.5480 0.5270 0.5220 0.5140
1545.918364 0.5080 0.5000 0.4940 0.4900 0.4880
1550.668217 0.4880 0.4900 0.4910 0.4930 0.4940
1555.418070 0.5020 0.5030 0.5110 0.5150 0.5310
1560.167923 0.5500 0.5620 0.5700 0.5740 0.5760
1564.917777 0.5870 0.5931 0.6180 0.6300 0.6320
1569.667630 0.6450 0.6510 0.6610 0.6670 0.6750
1574.417483 0.6750 0.6770 0.6830 0.6910 0.6940
1579.167336 0.6970 0.6970 0.6970 0.7000 0.7010
1583.917190 0.7030 0.7070 0.7100 0.7230 0.7250
1588.667043 0.7260 0.7310 0.7410 0.7530 0.7620
1593.416896 0.7680 0.7760 0.7810 0.7940 0.8030
1598.166749 0.8150 0.8220 0.8370 0.8440 0.8530
1602.916603 0.8620 0.8721 0.8900 0.8920 0.8980
1607.666456 0.8990 0.9120 0.9170 0.9240 0.9320
1612.416309 0.9360 0.9360 0.9390 0.9420 0.9450
1617.166162 0.9540 0.9610 0.9630 0.9660 0.9670
1621.916015 0.9680 0.9700 0.9710 0.9730 0.9730
1626.665869 0.9740 0.9770 0.9790 0.9790 0.9800
1631.415722 0.9820 0.9820 0.9830 0.9850 0.9880
1636.165575 0.9890 0.9910 0.9910 0.9920 0.9940
1640.915428 0.9940 0.9950 0.9970 0.9970 0.9980
1645.665282 1.0000 1.0000 1.0000 1.0010 1.0010
1650.415135 1.0010 1.0010 1.0010 1.0010 1.0000
1655.164988 1.0000 1.0000 1.0000 1.0000 0.9980
1659.914841 0.9980 0.9980 0.9980 0.9980 0.9980
1664.664695 0.9980 0.9980 0.9980 0.9980 0.9980
1669.414548 0.9980 1.0000 1.0000 1.0000 1.0000
1674.164401 1.0000 1.0000 1.0000 1.0010 1.0010
1678.914254 1.0010 1.0010 1.0020 1.0020 1.0020
1683.664108 1.0020 1.0020 1.0020 1.0020 1.0020
1688.413961 1.0020 1.0020 1.0020 1.0020 1.0020
1693.163814 1.0020 1.0020 1.0020 1.0020 1.0020
1697.913667 1.0010 1.0010 1.0010 1.0010 1.0010
1702.663520 1.0010 1.0010 1.0010 1.0010 1.0010
1707.413374 1.0020 1.0020 1.0020 1.0020 1.0020
1712.163227 1.0020 1.0020 1.0020 1.0020 1.0020
1716.913080 1.0020 1.0020 1.0020 1.0020 1.0020
1721.662933 1.0010 1.0010 1.0010 1.0010 1.0010
1726.412787 1.0010 1.0010 1.0010 1.0010 1.0000
1731.162640 1.0000 1.0010 1.0010 1.0010 1.0010
1735.912493 1.0010 1.0010 1.0010 1.0010 1.0010
1740.662346 1.0010 1.0010 1.0010 1.0010 1.0010
1745.412200 1.0010 1.0010 1.0010 1.0010 1.0010
1750.162053 1.0010 1.0010 1.0010 1.0020 1.0020
1754.911906 1.0020 1.0020 1.0020 1.0020 1.0020
1759.661759 1.0020 1.0020 1.0020 1.0020 1.0020
1764.411613 1.0020 1.0020 1.0020 1.0020 1.0020
1769.161466 1.0020 1.0020 1.0020 1.0020 1.0010
1773.911319 1.0010 1.0010 1.0010 1.0010 1.0010
1778.661172 1.0010 1.0010 1.0010 1.0010 1.0010
1783.411025 1.0010 1.0010 1.0010 1.0010 1.0010
1788.160879 1.0010 1.0010 1.0010 1.0010 1.0010
1792.910732 1.0010 1.0010 1.0010 1.0010 1.0000
1797.660585 1.0000 1.0000 1.0000 1.0000 1.0000
1802.410438 1.0000 1.0000 1.0000 0.9980 0.9980
1807.160292 0.9980 0.9980 0.9980 0.9970 0.9970
1811.910145 0.9970 0.9970 0.9970 0.9970 0.9950
1816.659998 0.9950 0.9950 0.9950 0.9950 0.9950
1821.409851 0.9950 0.9950 0.9970 0.9970 0.9970
1826.159705 0.9970 0.9970 0.9980 0.9980 1.0000
1830.909558 1.0000 1.0000 1.0000 1.0000 0.9980
1835.659411 0.9980 0.9980 0.9980 0.9980 0.9980
1840.409264 0.9970 0.9970 0.9970 0.9970 0.9970
1845.159118 0.9970 0.9970 0.9970 0.9970 0.9970
1849.908971 0.9970 0.9970 0.9970 0.9970 0.9970
1854.658824 0.9970 0.9970 0.9970 0.9970 0.9970
1859.408677 0.9980 0.9980 0.9980 0.9980 0.9980
1864.158531 0.9980 0.9980 0.9980 0.9980 0.9980
1868.908384 0.9980 0.9980 1.0000 1.0000 1.0000
1873.658237 1.0000 1.0000 1.0000 1.0000 1.0000
1878.408090 1.0010 1.0010 1.0010 1.0010 1.0010
1883.157943 1.0010 1.0010 1.0010 1.0020 1.0020
1887.907797 1.0020 1.0020 1.0020 1.0020 1.0020
1892.657650 1.0020 1.0020 1.0020 1.0020 1.0020
1897.407503 1.0020 1.0020 1.0020 1.0020 1.0020
1902.157356 1.0020 1.0020 1.0020 1.0020 1.0020
1906.907210 1.0020 1.0020 1.0020 1.0020 1.0020
1911.657063 1.0020 1.0020 1.0020 1.0020 1.0020
1916.406916 1.0020 1.0040 1.0040 1.0040 1.0040
1921.156769 1.0040 1.0040 1.0040 1.0040 1.0020
1925.906623 1.0020 1.0020 1.0020 1.0020 1.0020
1930.656476 1.0020 1.0020 1.0020 1.0020 1.0020
1935.406329 1.0020 1.0020 1.0020 1.0010 1.0010
1940.156182 1.0010 1.0010 1.0010 1.0010 1.0010
1944.906036 1.0010 1.0010 1.0010 1.0010 1.0010
1949.655889 1.0010 1.0010 1.0010 1.0010 1.0010
1954.405742 1.0010 1.0010 1.0010 1.0010 1.0010
1959.155595 1.0010 1.0010 1.0010 1.0010 1.0010
1963.905448 1.0010 1.0010 1.0010 1.0010 1.0010
1968.655302 1.0010 1.0010 1.0010 1.0010 1.0010
1973.405155 1.0010 1.0010 1.0010 1.0010 1.0000
1978.155008 1.0000 1.0000 1.0000 1.0000 0.9980
1982.904861 0.9980 1.0000 1.0000 1.0000 1.0000
1987.654715 1.0000 1.0000 1.0000 1.0000 1.0000
1992.404568 0.9980 1.0000 1.0000 1.0000 1.0000
1997.154421 0.9980 0.9980 0.9980 0.9980 0.9990
2001.904274 1.0000 1.0000 1.0000 1.0005 1.0010
2006.654128 1.0010 1.0010 1.0015 1.0020 1.0020
2011.403981 1.0021 1.0031 1.0040 1.0040 1.0040
2016.153834 1.0045 1.0050 1.0050 1.0050 1.0050
2020.903687 1.0051 1.0061 1.0070 1.0070 1.0071
2025.653541 1.0076 1.0080 1.0080 1.0080 1.0080
2030.403394 1.0080 1.0080 1.0080 1.0080 1.0080
2035.153247 1.0080 1.0082 1.0092 1.0100 1.0100
2039.903100 1.0101 1.0106 1.0110 1.0110 1.0110
2044.652953 1.0110 1.0109 1.0104 1.0100 1.0100
2049.402807 1.0097 1.0087 1.0080 1.0080 1.0079
2054.152660 1.0074 1.0070 1.0070 1.0067 1.0056
2058.902513 1.0050 1.0050 1.0054 1.0064 1.0070
2063.652366 1.0070 1.0072 1.0077 1.0080 1.0080
2068.402220 1.0080 1.0080 1.0084 1.0094 1.0100
2073.152073 1.0100 1.0100 1.0100 1.0100 1.0100
2077.901926 1.0100 1.0100 1.0100 1.0100 1.0095
2082.651779 1.0085 1.0080 1.0080 1.0080 1.0080
2087.401633 1.0077 1.0072 1.0070 1.0070 1.0070
2092.151486 1.0070 1.0070 1.0070 1.0070 1.0070
2096.901339 1.0064 1.0054 1.0050 1.0050 1.0050
2101.651192 1.0050 1.0056 1.0066 1.0070 1.0070
2106.401046 1.0073 1.0078 1.0080 1.0080 1.0080
2111.150899 1.0080 1.0080 1.0080 1.0080 1.0080
2115.900752 1.0080 1.0080 1.0080 1.0080 1.0076
2120.650605 1.0072 1.0070 1.0070 1.0070 1.0070
2125.400458 1.0070 1.0070 1.0070 1.0070 1.0070
2130.150312 1.0070 1.0070 1.0070 1.0070 1.0070
2134.900165 1.0070 1.0070 1.0070 1.0070 1.0070
2139.650018 1.0070 1.0070 1.0070 1.0070 1.0070
2144.399871 1.0070 1.0070 1.0070 1.0070 1.0070
2149.149725 1.0070 1.0070 1.0070 1.0075 1.0080
2153.899578 1.0080 1.0080 1.0080 1.0080 1.0080
2158.649431 1.0080 1.0080 1.0080 1.0080 1.0080
2163.399284 1.0080 1.0080 1.0075 1.0070 1.0070
2168.149138 1.0070 1.0070 1.0070 1.0070 1.0070
2172.898991 1.0070 1.0070 1.0070 1.0070 1.0070
2177.648844 1.0070 1.0070 1.0070 1.0070 1.0070
2182.398697 1.0075 1.0080 1.0080 1.0080 1.0075
2187.148551 1.0070 1.0070 1.0070 1.0070 1.0071
2191.898404 1.0076 1.0080 1.0080 1.0080 1.0080
2196.648257 1.0080 1.0080 1.0080 1.0080 1.0080
2201.398110 1.0080 1.0079 1.0074 1.0070 1.0070
2206.147964 1.0070 1.0070 1.0070 1.0070 1.0070
2210.897817 1.0070 1.0068 1.0057 1.0050 1.0050
2215.647670 1.0050 1.0050 1.0049 1.0044 1.0040
2220.397523 1.0040 1.0040 1.0040 1.0040 1.0040
2225.147376 1.0040 1.0040 1.0040 1.0040 1.0036
2229.897230 1.0026 1.0020 1.0020 1.0020 1.0020
2234.647083 1.0020 1.0020 1.0018 1.0013 1.0010
2239.396936 1.0010 1.0010 1.0010 1.0010 1.0010
2244.146789 1.0008 1.0003 1.0000 1.0000 1.0000
2248.896643 1.0000 0.9995 0.9985 0.9980 0.9980
2253.646496 0.9980 0.9980 0.9977 0.9972 0.9970
2258.396349 0.9970 0.9970 0.9970 0.9965 0.9955
2263.146202 0.9950 0.9950 0.9947 0.9942 0.9934
2267.896056 0.9924 0.9917 0.9912 0.9904 0.9894
2272.645909 0.9887 0.9882 0.9871 0.9856 0.9844
2277.395762 0.9834 0.9820 0.9805 0.9797 0.9792
2282.145615 0.9783 0.9773 0.9767 0.9762 0.9760
2286.895469 0.9760 0.9753 0.9743 0.9740 0.9740
2291.645322 0.9740 0.9740 0.9740 0.9740 0.9740
2296.395175 0.9740 0.9740 0.9740 0.9748 0.9758
2301.145028 0.9760 0.9760 0.9764 0.9769 0.9770
2305.894881 0.9770 0.9778 0.9788 0.9790 0.9790
2310.644735 0.9794 0.9799 0.9800 0.9800 0.9808
2315.394588 0.9819 0.9820 0.9820 0.9824 0.9829
2320.144441 0.9830 0.9830 0.9839 0.9849 0.9850
2324.894294 0.9850 0.9855 0.9860 0.9869 0.9879
2329.644148 0.9885 0.9890 0.9890 0.9890 0.9900
2334.394001 0.9910 0.9910 0.9910 0.9915 0.9920
2339.143854 0.9930 0.9940 0.9940 0.9940 0.9945
2343.893707 0.9950 0.9950 0.9950 0.9960 0.9970
2348.643561 0.9970 0.9971 0.9986 1.0000 1.0005
2353.393414 1.0010 1.0010 1.0010 1.0015 1.0021
2358.143267 1.0031 1.0040 1.0040 1.0040 1.0040
2362.893120 1.0040 1.0040 1.0040 1.0040 1.0040
2367.642974 1.0040 1.0040 1.0040 1.0040 1.0040
2372.392827 1.0038 1.0028 1.0020 1.0020 1.0020
2377.142680 1.0020 1.0020 1.0020 1.0019 1.0014
2381.892533 1.0010 1.0010 1.0009 1.0004 1.0000
2386.642386 1.0000 1.0000 1.0000 1.0000 1.0000
2391.392240 0.9997 0.9987 0.9980 0.9980 0.9980
2396.142093 0.9980 0.9980 0.9980 0.9980 0.9980
2400.891946 0.9984 0.9994 1.0000 1.0000 1.0002
2405.641799 1.0007 1.0010 1.0010 1.0010 1.0010
2410.391653 1.0012 1.0017 1.0020 1.0020 1.0020
2415.141506 1.0020 1.0020 1.0020 1.0020 1.0020
2419.891359 1.0020 1.0020 1.0020 1.0020 1.0020
2424.641212 1.0020 1.0020 1.0020 1.0020 1.0020
2429.391066 1.0020 1.0020 1.0025 1.0035 1.0040
2434.140919 1.0040 1.0040 1.0040 1.0040 1.0040
2438.890772 1.0040 1.0040 1.0040 1.0040 1.0040
2443.640625 1.0040 1.0040 1.0040 1.0040 1.0040
2448.390479 1.0040 1.0040 1.0040 1.0040 1.0040
2453.140332 1.0040 1.0040 1.0040 1.0040 1.0040
2457.890185 1.0040 1.0040 1.0040 1.0040 1.0040
2462.640038 1.0040 1.0040 1.0040 1.0040 1.0040
2467.389891 1.0040 1.0040 1.0040 1.0040 1.0040
2472.139745 1.0040 1.0040 1.0040 1.0040 1.0040
2476.889598 1.0040 1.0040 1.0040 1.0040 1.0040
2481.639451 1.0040 1.0040 1.0040 1.0040 1.0040
2486.389304 1.0040 1.0040 1.0040 1.0040 1.0040
2491.139158 1.0040 1.0040 1.0040 1.0040 1.0040
2495.889011 1.0031 1.0021 1.0020 1.0020 1.0020
2500.638864 1.0020 1.0020 1.0020 1.0030 1.0040
2505.388717 1.0040 1.0040 1.0040 1.0040 1.0040
2510.138571 1.0040 1.0040 1.0040 1.0045 1.0050
2514.888424 1.0050 1.0050 1.0050 1.0050 1.0050
2519.638277 1.0050 1.0050 1.0050 1.0050 1.0050
2524.388130 1.0050 1.0050 1.0050 1.0051 1.0061
2529.137984 1.0070 1.0070 1.0071 1.0076 1.0080
2533.887837 1.0080 1.0080 1.0080 1.0080 1.0080
2538.637690 1.0079 1.0074 1.0070 1.0070 1.0070
2543.387543 1.0070 1.0070 1.0070 1.0068 1.0058
2548.137396 1.0050 1.0050 1.0050 1.0050 1.0049
2552.887250 1.0044 1.0040 1.0040 1.0040 1.0040
2557.637103 1.0041 1.0047 1.0050 1.0050 1.0053
2562.386956 1.0063 1.0070 1.0070 1.0070 1.0070
2567.136809 1.0070 1.0070 1.0070 1.0070 1.0070
2571.886663 1.0070 1.0070 1.0070 1.0070 1.0070
2576.636516 1.0070 1.0070 1.0066 1.0056 1.0050
2581.386369 1.0050 1.0050 1.0050 1.0050 1.0050
2586.136222 1.0048 1.0043 1.0040 1.0040 1.0040
2590.886076 1.0040 1.0043 1.0048 1.0050 1.0050
2595.635929 1.0050 1.0050 1.0050 1.0050 1.0055
2600.385782 1.0065 1.0070 1.0070 1.0070 1.0070
2605.135635 1.0070 1.0070 1.0070 1.0070 1.0070
2609.885489 1.0070 1.0070 1.0070 1.0070 1.0070
2614.635342 1.0070 1.0070 1.0070 1.0070 1.0070
2619.385195 1.0070 1.0070 1.0070 1.0063 1.0053
2624.135048 1.0050 1.0050 1.0047 1.0042 1.0040
2628.884902 1.0040 1.0033 1.0023 1.0020 1.0020
2633.634755 1.0020 1.0020 1.0020 1.0020 1.0020
2638.384608 1.0020 1.0020 1.0020 1.0020 1.0020
2643.134461 1.0020 1.0020 1.0020 1.0020 1.0020
2647.884314 1.0020 1.0020 1.0020 1.0020 1.0020
2652.634168 1.0020 1.0020 1.0020 1.0020 1.0020
2657.384021 1.0020 1.0020 1.0020 1.0020 1.0020
2662.133874 1.0020 1.0020 1.0020 1.0020 1.0020
2666.883727 1.0020 1.0020 1.0020 1.0020 1.0020
2671.633581 1.0020 1.0020 1.0020 1.0020 1.0020
2676.383434 1.0020 1.0020 1.0020 1.0020 1.0020
2681.133287 1.0020 1.0020 1.0015 1.0010 1.0010
2685.883140 1.0010 1.0010 1.0010 1.0010 1.0010
2690.632994 1.0010 1.0010 1.0010 1.0010 1.0010
2695.382847 1.0011 1.0015 1.0020 1.0020 1.0020
2700.132700 1.0020 1.0020 1.0020 1.0022 1.0032
2704.882553 1.0040 1.0040 1.0041 1.0046 1.0050
2709.632407 1.0050 1.0052 1.0062 1.0070 1.0070
2714.382260 1.0070 1.0070 1.0070 1.0070 1.0070
2719.132113 1.0070 1.0070 1.0070 1.0070 1.0070
2723.881966 1.0067 1.0057 1.0050 1.0050 1.0050
2728.631819 1.0050 1.0049 1.0044 1.0040 1.0040
2733.381673 1.0040 1.0040 1.0037 1.0027 1.0018
2738.131526 1.0013 1.0010 1.0010 1.0010 1.0010
2742.881379 1.0010 1.0010 1.0010 1.0010 1.0012
2747.631232 1.0017 1.0020 1.0020 1.0020 1.0020
2752.381086 1.0020 1.0020 1.0020 1.0020 1.0020
2757.130939 1.0020 1.0020 1.0020 1.0020 1.0020
2761.880792 1.0025 1.0035 1.0040 1.0040 1.0040
2766.630645 1.0040 1.0040 1.0040 1.0040 1.0040
2771.380499 1.0040 1.0040 1.0040 1.0040 1.0040
2776.130352 1.0040 1.0040 1.0040 1.0040 1.0040
2780.880205 1.0040 1.0040 1.0043 1.0048 1.0050
2785.630058 1.0050 1.0050 1.0050 1.0050 1.0050
2790.379912 1.0050 1.0050 1.0050 1.0050 1.0050
2795.129765 1.0050 1.0050 1.0050 1.0046 1.0041
2799.879618 1.0040 1.0040 1.0040 1.0040 1.0040
2804.629471 1.0040 1.0040 1.0040 1.0040 1.0040
2809.379324 1.0032 1.0022 1.0020 1.0020 1.0020
2814.129178 1.0020 1.0016 1.0011 1.0010 1.0010
2818.879031 1.0010 1.0010 1.0006 1.0001 1.0000
2823.628884 1.0000 1.0000 1.0000 0.9991 0.9981
2828.378737 0.9976 0.9971 0.9934 0.9893 0.9862
2833.128591 0.9832 0.9825 0.9820 0.9825 0.9830
2837.878444 0.9844 0.9859 0.9884 0.9909 0.9924
2842.628297 0.9940 0.9940 0.9940 0.9945 0.9950
2847.378150 0.9950 0.9950 0.9950 0.9950 0.9950
2852.128004 0.9950 0.9950 0.9950 0.9960 0.9970
2856.877857 0.9970 0.9971 0.9986 1.0000 1.0000
2861.627710 1.0000 1.0000 1.0000 1.0006 1.0010
2866.377563 1.0010 1.0011 1.0016 1.0021 1.0031
2871.127417 1.0041 1.0046 1.0050 1.0050 1.0052
2875.877270 1.0062 1.0070 1.0070 1.0070 1.0070
2880.627123 1.0070 1.0070 1.0070 1.0070 1.0068
2885.376976 1.0058 1.0049 1.0044 1.0037 1.0027
2890.126829 1.0020 1.0020 1.0019 1.0014 1.0010
2894.876683 1.0010 1.0010 1.0010 1.0010 1.0010
2899.626536 1.0010 1.0010 1.0008 1.0003 1.0000
2904.376389 1.0000 1.0000 1.0000 0.9996 0.9986
2909.126242 0.9980 0.9980 0.9978 0.9973 0.9970
2913.876096 0.9970 0.9966 0.9956 0.9950 0.9950
2918.625949 0.9950 0.9950 0.9950 0.9950 0.9950
2923.375802 0.9950 0.9948 0.9943 0.9935 0.9925
2928.125655 0.9918 0.9913 0.9903 0.9888 0.9880
2932.875509 0.9880 0.9872 0.9857 0.9845 0.9835
2937.625362 0.9819 0.9799 0.9750 0.9674 0.9615
2942.375215 0.9570 0.9542 0.9526 0.9491 0.9440
2947.125068 0.9345 0.9220 0.9067 0.8896 0.8796
2951.874922 0.8741 0.8720 0.8720 0.8758 0.8818
2956.624775 0.8850 0.8865 0.8880 0.8895 0.8917
2961.374628 0.8942 0.9004 0.9085 0.9113 0.9119
2966.124481 0.9163 0.9223 0.9251 0.9266 0.9281
2970.874334 0.9296 0.9311 0.9326 0.9337 0.9347
2975.624188 0.9358 0.9368 0.9378 0.9388 0.9413
2980.374041 0.9443 0.9486 0.9531 0.9564 0.9595
2985.123894 0.9653 0.9719 0.9747 0.9767 0.9778
2989.873747 0.9788 0.9794 0.9799 0.9813 0.9828
2994.623601 0.9830 0.9830 0.9830 0.9830 0.9839
2999.373454 0.9849 0.9850 0.9850 0.9850 0.9850
3004.123307 0.9850 0.9850 0.9850 0.9850 0.9850
3008.873160 0.9850 0.9850 0.9850 0.9850 0.9850
3013.623014 0.9850 0.9850 0.9850 0.9850 0.9850
3018.372867 0.9850 0.9850 0.9850 0.9840 0.9830
3023.122720 0.9830 0.9830 0.9830 0.9830 0.9830
3027.872573 0.9830 0.9830 0.9830 0.9825 0.9820
3032.622427 0.9820 0.9819 0.9809 0.9800 0.9800
3037.372280 0.9800 0.9800 0.9800 0.9800 0.9800
3042.122133 0.9800 0.9802 0.9812 0.9820 0.9820
3046.871986 0.9821 0.9826 0.9833 0.9848 0.9863
3051.621840 0.9878 0.9892 0.9902 0.9913 0.9928
3056.371693 0.9941 0.9946 0.9950 0.9950 0.9953
3061.121546 0.9963 0.9970 0.9970 0.9971 0.9976
3065.871399 0.9980 0.9980 0.9980 0.9980 0.9983
3070.621252 0.9993 1.0000 1.0000 1.0000 1.0000
3075.371106 1.0002 1.0007 1.0010 1.0010 1.0010
3080.120959 1.0010 1.0012 1.0017 1.0020 1.0020
3084.870812 1.0024 1.0034 1.0040 1.0040 1.0042
3089.620665 1.0047 1.0050 1.0050 1.0050 1.0050
3094.370519 1.0050 1.0050 1.0050 1.0050 1.0050
3099.120372 1.0050 1.0050 1.0050 1.0050 1.0050
3103.870225 1.0050 1.0050 1.0055 1.0065 1.0070
3108.620078 1.0070 1.0070 1.0070 1.0070 1.0070
3113.369932 1.0070 1.0070 1.0070 1.0070 1.0070
3118.119785 1.0070 1.0070 1.0070 1.0070 1.0070
3122.869638 1.0070 1.0070 1.0070 1.0070 1.0070
3127.619491 1.0070 1.0070 1.0070 1.0070 1.0070
3132.369345 1.0070 1.0070 1.0070 1.0070 1.0070
3137.119198 1.0070 1.0070 1.0070 1.0070 1.0070
3141.869051 1.0070 1.0070 1.0070 1.0070 1.0070
3146.618904 1.0070 1.0070 1.0070 1.0070 1.0070
3151.368757 1.0070 1.0070 1.0070 1.0070 1.0070
3156.118611 1.0070 1.0070 1.0070 1.0070 1.0070
3160.868464 1.0074 1.0079 1.0080 1.0080 1.0080
3165.618317 1.0080 1.0080 1.0080 1.0080 1.0080
3170.368170 1.0080 1.0080 1.0080 1.0080 1.0080
3175.118024 1.0080 1.0080 1.0080 1.0080 1.0080
3179.867877 1.0075 1.0070 1.0070 1.0070 1.0070
3184.617730 1.0070 1.0070 1.0070 1.0070 1.0070
3189.367583 1.0070 1.0070 1.0070 1.0070 1.0070
3194.117437 1.0070 1.0070 1.0070 1.0070 1.0070
3198.867290 1.0075 1.0080 1.0080 1.0080 1.0080
3203.617143 1.0081 1.0091 1.0100 1.0100 1.0100
3208.366996 1.0100 1.0099 1.0089 1.0080 1.0080
3213.116850 1.0080 1.0080 1.0080 1.0080 1.0079
3217.866703 1.0074 1.0070 1.0070 1.0071 1.0076
3222.616556 1.0080 1.0080 1.0080 1.0080 1.0082
3227.366409 1.0093 1.0100 1.0100 1.0100 1.0100
3232.116262 1.0100 1.0100 1.0101 1.0107 1.0110
3236.866116 1.0110 1.0110 1.0110 1.0110 1.0110
3241.615969 1.0110 1.0110 1.0110 1.0110 1.0110
3246.365822 1.0110 1.0110 1.0110 1.0114 1.0124
3251.115675 1.0130 1.0130 1.0130 1.0130 1.0130
3255.865529 1.0130 1.0130 1.0130 1.0130 1.0130
3260.615382 1.0130 1.0130 1.0130 1.0130 1.0125
3265.365235 1.0115 1.0110 1.0110 1.0108 1.0103
3270.115088 1.0100 1.0100 1.0095 1.0085 1.0080
3274.864942 1.0080 1.0085 1.0095 1.0100 1.0100
3279.614795 1.0103 1.0108 1.0110 1.0110 1.0116
3284.364648 1.0126 1.0130 1.0130 1.0130 1.0130
3289.114501 1.0130 1.0130 1.0130 1.0130 1.0130
3293.864355 1.0130 1.0130 1.0130 1.0130 1.0130
3298.614208 1.0130 1.0130 1.0130 1.0130 1.0130
3303.364061 1.0130 1.0130 1.0130 1.0130 1.0130
3308.113914 1.0130 1.0130 1.0130 1.0130 1.0130
3312.863767 1.0130 1.0123 1.0112 1.0110 1.0110
3317.613621 1.0110 1.0110 1.0110 1.0110 1.0110
3322.363474 1.0110 1.0110 1.0110 1.0118 1.0128
3327.113327 1.0130 1.0130 1.0130 1.0130 1.0130
3331.863180 1.0130 1.0130 1.0130 1.0130 1.0130
3336.613034 1.0134 1.0139 1.0140 1.0140 1.0140
3341.362887 1.0140 1.0140 1.0140 1.0140 1.0140
3346.112740 1.0140 1.0140 1.0140 1.0140 1.0140
3350.862593 1.0140 1.0140 1.0140 1.0140 1.0140
3355.612447 1.0140 1.0140 1.0140 1.0140 1.0140
3360.362300 1.0140 1.0140 1.0140 1.0140 1.0140
3365.112153 1.0140 1.0140 1.0140 1.0140 1.0140
3369.862006 1.0140 1.0140 1.0140 1.0140 1.0140
3374.611860 1.0140 1.0140 1.0140 1.0140 1.0140
3379.361713 1.0140 1.0140 1.0140 1.0140 1.0139
3384.111566 1.0134 1.0130 1.0130 1.0130 1.0130
3388.861419 1.0130 1.0130 1.0130 1.0130 1.0130
3393.611273 1.0130 1.0130 1.0130 1.0130 1.0130
3398.361126 1.0130 1.0130 1.0127 1.0117 1.0109
3403.110979 1.0104 1.0100 1.0100 1.0097 1.0087
3407.860832 1.0080 1.0080 1.0083 1.0093 1.0105
3412.610685 1.0120 1.0132 1.0137 1.0144 1.0154
3417.360539 1.0160 1.0160 1.0160 1.0160 1.0156
3422.110392 1.0146 1.0140 1.0140 1.0140 1.0140
3426.860245 1.0138 1.0133 1.0130 1.0130 1.0130
3431.610098 1.0130 1.0132 1.0137 1.0140 1.0140
3436.359952 1.0138 1.0133 1.0130 1.0130 1.0130
3441.109805 1.0130 1.0130 1.0130 1.0130 1.0130
3445.859658 1.0130 1.0130 1.0130 1.0130 1.0130
3450.609511 1.0130 1.0130 1.0130 1.0130 1.0130
3455.359365 1.0130 1.0130 1.0133 1.0138 1.0140
3460.109218 1.0140 1.0137 1.0132 1.0130 1.0130
3464.859071 1.0130 1.0130 1.0130 1.0130 1.0123
3469.608924 1.0113 1.0110 1.0110 1.0107 1.0102
3474.358778 1.0100 1.0100 1.0100 1.0100 1.0100
3479.108631 1.0100 1.0100 1.0100 1.0100 1.0100
3483.858484 1.0100 1.0100 1.0100 1.0100 1.0100
3488.608337 1.0100 1.0100 1.0100 1.0104 1.0109
3493.358190 1.0110 1.0110 1.0110 1.0110 1.0110
3498.108044 1.0110 1.0110 1.0110 1.0110 1.0110
3502.857897 1.0119 1.0129 1.0121 1.0111 1.0110
3507.607750 1.0110 1.0106 1.0100 1.0100 1.0100
3512.357603 1.0100 1.0100 1.0100 1.0100 1.0100
3517.107457 1.0100 1.0090 1.0080 1.0080 1.0080
3521.857310 1.0090 1.0100 1.0105 1.0110 1.0110
3526.607163 1.0110 1.0110 1.0110 1.0110 1.0110
3531.357016 1.0105 1.0100 1.0100 1.0100 1.0100
3536.106870 1.0100 1.0100 1.0099 1.0089 1.0080
3540.856723 1.0080 1.0080 1.0075 1.0070 1.0070
3545.606576 1.0070 1.0070 1.0070 1.0070 1.0070
3550.356429 1.0070 1.0071 1.0076 1.0082 1.0092
3555.106283 1.0100 1.0100 1.0101 1.0106 1.0110
3559.856136 1.0110 1.0110 1.0110 1.0110 1.0110
3564.605989 1.0110 1.0110 1.0110 1.0110 1.0110
3569.355842 1.0110 1.0110 1.0110 1.0110 1.0110
3574.105695 1.0109 1.0104 1.0100 1.0100 1.0097
3578.855549 1.0087 1.0080 1.0080 1.0080 1.0080
3583.605402 1.0083 1.0094 1.0100 1.0100 1.0100
3588.355255 1.0100 1.0096 1.0086 1.0080 1.0080
3593.105108 1.0080 1.0080 1.0080 1.0080 1.0080
3597.854962 1.0080 1.0080 1.0080 1.0080 1.0080
3602.604815 1.0080 1.0080 1.0085 1.0095 1.0100
3607.354668 1.0100 1.0100 1.0100 1.0100 1.0100
3612.104521 1.0100 1.0100 1.0100 1.0100 1.0095
3616.854375 1.0085 1.0080 1.0080 1.0077 1.0072
3621.604228 1.0070 1.0070 1.0070 1.0070 1.0070
3626.354081 1.0070 1.0070 1.0070 1.0070 1.0070
3631.103934 1.0070 1.0070 1.0073 1.0078 1.0080
3635.853788 1.0080 1.0080 1.0080 1.0087 1.0097
3640.603641 1.0100 1.0100 1.0100 1.0100 1.0100
3645.353494 1.0100 1.0100 1.0100 1.0104 1.0109
3650.103347 1.0110 1.0110 1.0110 1.0110 1.0110
3654.853200 1.0110 1.0110 1.0110 1.0106 1.0101
3659.603054 1.0100 1.0100 1.0100 1.0100 1.0092
3664.352907 1.0082 1.0080 1.0080 1.0080 1.0080
3669.102760 1.0076 1.0071 1.0070 1.0070 1.0070
3673.852613 1.0070 1.0070 1.0070 1.0061 1.0051
3678.602467 1.0050 1.0050 1.0050 1.0050 1.0050
3683.352320 1.0050 1.0050 1.0050 1.0050 1.0050
3688.102173 1.0045 1.0040 1.0040 1.0040 1.0040
3692.852026 1.0040 1.0040 1.0040 1.0030 1.0020
3697.601880 1.0020 1.0020 1.0020 1.0020 1.0020
3702.351733 1.0020 1.0020 1.0020 1.0020 1.0021
3707.101586 1.0031 1.0040 1.0040 1.0040 1.0040
3711.851439 1.0040 1.0046 1.0050 1.0050 1.0050
3716.601293 1.0050 1.0051 1.0062 1.0070 1.0070
3721.351146 1.0070 1.0070 1.0070 1.0070 1.0071
3726.100999 1.0076 1.0080 1.0080 1.0080 1.0080
3730.850852 1.0080 1.0080 1.0080 1.0080 1.0080
3735.600705 1.0080 1.0080 1.0080 1.0080 1.0080
3740.350559 1.0083 1.0093 1.0100 1.0100 1.0100
3745.100412 1.0100 1.0100 1.0100 1.0100 1.0100
3749.850265 1.0100 1.0100 1.0100 1.0100 1.0100
3754.600118 1.0100 1.0100 1.0100 1.0100 1.0100
3759.349972 1.0100 1.0100 1.0100 1.0100 1.0100
3764.099825 1.0100 1.0100 1.0100 1.0100 1.0100
3768.849678 1.0100 1.0100 1.0095 1.0086 1.0080
3773.599531 1.0080 1.0080 1.0080 1.0080 1.0080
3778.349385 1.0080 1.0080 1.0077 1.0072 1.0070
3783.099238 1.0070 1.0070 1.0070 1.0065 1.0055
3787.849091 1.0055 1.0066 1.0070 1.0070 1.0073
3792.598944 1.0078 1.0077 1.0072 1.0070 1.0070
3797.348798 1.0073 1.0078
##END=
