##TITLE=.gamma.-Thiobutyrolactone
##JCAMP-DX=4.24
##DATA TYPE=INFRARED SPECTRUM
##ORIGIN=NIST Mass Spectrometry Data Center
##OWNER=NIST Standard Reference Data Program
Collection (C) 2018 copyright by the U.S. Secretary of Commerce
on behalf of the United States of America. All rights reserved.
##CAS REGISTRY NO=1003-10-7
##MOLFORM=C 4 H 6 O S
##$NIST SOURCE=MSDC-IR
##SPECTROMETER/DATA SYSTEM=HP-GC/MS/IRD
##STATE=gas
##XUNITS=1/CM
##YUNITS=ABSORBANCE
##XFACTOR=1.0
##YFACTOR=0.000010400
##DELTAX=4.0
##FIRSTX=550.0
##LASTX=3846.0
##FIRSTY=0.000406
##MAXX=3846
##MINX=550
##MAXY=0.104
##MINY=0
##NPOINTS=825
##XYDATA=(X++(Y..Y))
550.0 39 62 100 145 191 239 290 331 365 416
590.0 500 602 703 820 958 1081 1138 1127 1091 1061
630.0 995 836 609 385 230 149 109 90 80 71
670.0 69 75 77 71 70 70 66 55 49 42
710.0 29 20 14 14 9 5 2 3 4 0
750.0 0 2 8 12 14 12 12 20 28 33
790.0 45 69 109 162 228 296 355 392 398 403
830.0 419 409 367 309 255 224 193 175 170 157
870.0 135 112 103 116 147 184 226 256 256 247
910.0 258 253 223 177 132 98 75 68 61 62
950.0 74 87 101 115 138 170 219 283 371 490
990.0 624 759 880 966 1021 1059 1053 999 928 873
1030.0 884 985 1148 1325 1457 1522 1555 1561 1501 1353
1070.0 1128 868 662 540 478 459 448 430 414 393
1110.0 360 303 236 175 131 107 89 83 89 88
1150.0 89 90 87 84 82 78 67 49 35 30
1190.0 26 23 27 39 49 59 72 72 74 80
1230.0 84 78 66 57 57 70 94 122 150 178
1270.0 204 223 229 228 216 190 166 143 111 80
1310.0 57 46 40 34 32 32 29 24 21 18
1350.0 16 14 11 9 10 11 12 15 20 26
1390.0 37 53 79 111 148 184 214 242 274 284
1430.0 284 288 284 275 281 274 225 190 172 143
1470.0 113 86 67 50 40 33 29 29 25 22
1510.0 20 19 20 20 19 20 19 20 20 20
1550.0 21 21 19 21 22 23 27 31 34 37
1590.0 38 41 43 48 54 59 68 79 88 95
1630.0 106 118 128 138 147 158 173 194 220 250
1670.0 285 330 384 445 519 606 707 857 1069 1402
1710.0 1952 2828 4158 5867 7601 8786 9246 9818 10000 9236
1750.0 8539 7068 4612 2516 1356 831 566 407 311 252
1790.0 216 193 181 173 169 171 174 176 175 174
1830.0 169 162 156 151 141 134 133 134 137 137
1870.0 136 135 130 122 112 101 87 74 64 55
1910.0 47 43 43 41 35 29 28 30 31 30
1950.0 28 27 25 25 23 22 21 18 18 17
1990.0 16 17 16 18 18 16 18 20 21 21
2030.0 23 26 28 29 31 33 33 34 33 32
2070.0 33 32 29 27 27 29 31 31 32 34
2110.0 34 33 32 30 29 27 25 25 24 22
2150.0 22 20 20 17 17 18 17 16 16 14
2190.0 13 14 14 12 12 13 13 13 12 11
2230.0 13 14 14 13 11 11 12 14 14 15
2270.0 16 19 19 18 18 20 23 24 24 25
2310.0 25 26 26 25 26 24 22 21 20 18
2350.0 17 16 17 16 11 9 10 10 7 4
2390.0 6 7 7 6 5 5 7 9 10 10
2430.0 11 12 12 13 14 13 11 8 5 7
2470.0 7 5 4 5 4 4 6 2 0 3
2510.0 3 4 5 5 6 7 4 3 4 5
2550.0 6 5 9 10 8 8 7 5 4 6
2590.0 6 4 4 5 6 7 7 8 7 6
2630.0 6 7 6 8 9 7 5 3 7 9
2670.0 7 5 6 8 10 10 9 9 10 13
2710.0 13 11 13 17 20 22 21 21 20 20
2750.0 18 17 19 15 13 15 19 20 19 21
2790.0 23 24 24 24 29 34 42 49 52 57
2830.0 62 68 71 75 85 105 138 186 241 295
2870.0 339 368 396 414 405 380 360 348 347 352
2910.0 364 397 441 481 539 616 683 748 866 1043
2950.0 1158 1216 1253 1339 1450 1351 1240 1179 1124 1072
2990.0 807 564 462 351 251 168 112 75 51 38
3030.0 34 31 27 23 22 24 19 15 20 21
3070.0 17 17 18 19 21 20 19 20 18 16
3110.0 15 14 13 12 13 12 9 7 6 10
3150.0 10 9 10 11 12 11 10 12 12 10
3190.0 8 7 9 11 8 5 5 4 5 6
3230.0 2 0 2 5 7 6 7 6 7 7
3270.0 5 4 6 10 11 11 8 4 2 2
3310.0 3 4 3 6 6 6 8 12 14 12
3350.0 10 11 14 17 19 18 18 20 18 20
3390.0 22 22 24 24 26 34 38 41 52 67
3430.0 79 98 125 144 159 178 186 191 198 187
3470.0 165 138 112 88 68 52 41 34 34 31
3510.0 29 28 24 23 21 15 13 17 16 14
3550.0 14 15 14 13 13 14 17 16 14 13
3590.0 13 11 14 18 13 10 12 12 9 4
3630.0 5 5 8 14 12 12 10 10 10 8
3670.0 10 14 10 9 9 9 10 6 5 8
3710.0 8 7 9 13 12 10 12 13 8 6
3750.0 9 12 13 11 14 17 17 18 23 24
3790.0 18 18 14 10 16 17 14 11 10 13
3830.0 13 8 11 16 7
##END=
