##TITLE=1-Butyne
##JCAMP-DX=4.24
##DATA TYPE=INFRARED SPECTRUM
##ORIGIN=NIST Mass Spectrometry Data Center
##OWNER=NIST Standard Reference Data Program
Collection (C) 2018 copyright by the U.S. Secretary of Commerce
on behalf of the United States of America. All rights reserved.
##CAS REGISTRY NO=107-00-6
##MOLFORM=C 4 H 6
##$NIST SOURCE=MSDC-IR
##SPECTROMETER/DATA SYSTEM=HP-GC/MS/IRD
##STATE=gas
##XUNITS=1/CM
##YUNITS=ABSORBANCE
##XFACTOR=1.0
##YFACTOR=0.000009100
##DELTAX=4.0
##FIRSTX=550.0
##LASTX=3846.0
##FIRSTY=0.001383
##MAXX=3846
##MINX=550
##MAXY=0.091
##MINY=0
##NPOINTS=825
##XYDATA=(X++(Y..Y))
550.0 152 143 119 117 125 140 152 164 190 257
590.0 328 448 616 901 1331 1918 2708 3794 4843 6409
630.0 8670 10000 9350 7405 5791 4407 3202 2233 1491 981
670.0 650 438 314 226 168 137 120 98 84 79
710.0 68 53 49 47 40 33 32 26 21 19
750.0 23 31 34 32 31 31 31 31 36 35
790.0 32 35 35 36 30 27 29 32 33 31
830.0 30 31 32 33 34 32 31 32 31 23
870.0 24 27 22 17 20 18 12 11 9 8
910.0 13 13 11 13 11 16 18 17 13 12
950.0 16 19 18 17 20 21 24 30 36 39
990.0 41 49 54 53 52 52 55 57 57 61
1030.0 63 73 88 110 137 168 200 217 224 227
1070.0 222 237 268 268 248 220 178 150 131 113
1110.0 102 97 89 79 68 59 58 59 56 52
1150.0 48 44 39 33 34 34 32 35 36 37
1190.0 47 58 65 80 101 130 187 293 469 741
1230.0 1085 1422 1624 1605 1455 1466 1645 1630 1595 1564
1270.0 1332 1013 721 514 402 374 411 491 586 657
1310.0 659 612 593 542 524 612 627 523 374 246
1350.0 164 121 108 110 114 121 129 132 132 145
1390.0 179 212 231 246 260 279 305 334 368 407
1430.0 442 466 469 471 484 518 578 642 614 486
1470.0 411 397 385 369 343 310 274 241 212 186
1510.0 160 139 119 103 92 81 68 59 53 45
1550.0 41 37 35 33 31 32 33 36 36 32
1590.0 34 35 33 35 37 35 31 31 31 29
1630.0 29 32 31 29 30 31 30 30 28 26
1670.0 27 25 23 22 19 15 12 11 9 6
1710.0 4 5 7 4 2 3 5 4 3 4
1750.0 3 4 5 4 2 0 4 6 6 7
1790.0 9 6 7 9 7 4 5 6 5 6
1830.0 6 8 10 11 14 15 13 12 14 17
1870.0 15 16 19 19 17 17 18 17 15 11
1910.0 12 11 9 9 7 6 6 4 3 1
1950.0 1 3 3 1 1 0 1 2 1 1
1990.0 3 4 2 1 0 3 6 8 8 10
2030.0 12 16 17 16 18 21 22 26 28 31
2070.0 38 48 59 76 99 128 160 194 224 250
2110.0 264 273 276 278 277 273 257 226 183 133
2150.0 94 70 56 53 50 48 48 41 29 23
2190.0 20 17 15 12 13 14 14 15 16 17
2230.0 18 19 17 15 15 15 15 13 12 11
2270.0 10 11 11 10 10 9 9 10 11 13
2310.0 16 16 15 13 11 11 10 10 11 11
2350.0 10 11 14 15 18 21 22 23 24 25
2390.0 26 24 23 20 15 15 16 12 11 15
2430.0 16 13 12 13 10 12 14 16 16 16
2470.0 15 16 17 17 18 22 23 22 21 18
2510.0 18 17 18 19 19 20 19 16 15 15
2550.0 14 13 13 12 13 15 14 15 19 20
2590.0 22 28 29 28 31 37 41 41 38 37
2630.0 36 37 41 40 38 38 34 32 32 37
2670.0 42 43 44 45 51 59 69 71 62 53
2710.0 51 49 48 50 56 66 74 76 81 87
2750.0 93 94 93 94 94 93 92 89 93 94
2790.0 94 99 110 119 129 141 151 165 187 209
2830.0 233 264 294 326 364 405 438 475 523 589
2870.0 701 850 1010 1129 1159 1145 1202 1316 1427 1510
2910.0 1538 1558 1599 1668 1778 1929 2170 2425 2443 2376
2950.0 2456 2538 2658 2890 3029 3040 2953 2776 2584 2592
2990.0 2808 2662 2399 2245 1950 1644 1365 1140 962 810
3030.0 676 562 466 383 314 261 219 181 156 141
3070.0 131 124 121 114 109 103 100 99 101 105
3110.0 107 108 106 108 107 106 103 104 101 100
3150.0 102 102 104 105 105 107 112 113 114 113
3190.0 116 110 96 91 82 73 72 65 58 59
3230.0 60 65 71 79 95 116 134 161 195 242
3270.0 305 376 463 564 719 920 1120 1339 1549 1887
3310.0 2324 2635 2878 2749 2567 2550 2189 2282 2556 2267
3350.0 1690 1101 690 457 341 281 237 188 143 111
3390.0 84 63 48 41 38 34 29 25 27 28
3430.0 27 25 23 25 20 15 17 19 19 20
3470.0 23 23 25 29 31 31 29 31 34 31
3510.0 31 30 28 28 26 31 29 21 21 22
3550.0 22 14 11 18 24 18 15 18 19 13
3590.0 11 17 18 18 19 16 12 12 16 18
3630.0 13 9 11 13 16 22 19 15 15 20
3670.0 24 28 22 18 20 20 22 29 30 25
3710.0 23 22 20 23 25 23 19 21 28 32
3750.0 31 31 30 27 29 25 20 25 29 27
3790.0 29 30 27 23 20 24 23 19 18 18
3830.0 15 19 22 16 14
##END=
