##TITLE=3-Mercaptopropionic acid
##JCAMP-DX=4.24
##DATA TYPE=INFRARED SPECTRUM
##ORIGIN=NIST Mass Spectrometry Data Center
##OWNER=NIST Standard Reference Data Program
Collection (C) 2018 copyright by the U.S. Secretary of Commerce
on behalf of the United States of America. All rights reserved.
##CAS REGISTRY NO=107-96-0
##MOLFORM=C 3 H 6 O 2 S
##$NIST SOURCE=MSDC-IR
##SPECTROMETER/DATA SYSTEM=HP-GC/MS/IRD
##STATE=gas
##XUNITS=1/CM
##YUNITS=ABSORBANCE
##XFACTOR=1.0
##YFACTOR=0.000001800
##DELTAX=4.0
##FIRSTX=550.0
##LASTX=3846.0
##FIRSTY=0.001616
##MAXX=3846
##MINX=550
##MAXY=0.018
##MINY=0
##NPOINTS=825
##XYDATA=(X++(Y..Y))
550.0 898 1521 1315 1369 1410 1506 1574 1635 1706 1778
590.0 1804 1826 1887 1944 2041 2121 2145 2156 2130 2023
630.0 1867 1688 1529 1398 1257 1147 1060 968 900 846
670.0 792 702 622 575 525 478 450 408 377 356
710.0 312 268 245 244 218 206 223 245 267 278
750.0 299 309 289 270 258 223 187 155 123 101
790.0 85 56 37 31 25 21 26 39 44 55
830.0 45 39 64 60 57 84 99 82 71 71
870.0 76 91 105 118 121 118 108 112 105 94
910.0 101 120 133 140 156 165 176 189 203 222
950.0 240 269 277 283 312 340 369 383 385 406
990.0 433 456 467 482 509 532 574 629 691 755
1030.0 806 852 892 909 919 918 920 936 966 1006
1070.0 1080 1189 1343 1544 1800 2156 2609 3177 3919 4839
1110.0 5859 6801 7477 7810 7801 7430 6639 5560 4543 3756
1150.0 3174 2770 2503 2329 2220 2142 2108 2112 2100 2082
1190.0 2056 2014 1941 1853 1754 1643 1552 1472 1400 1334
1230.0 1265 1204 1136 1099 1078 1022 984 973 968 969
1270.0 962 949 927 908 871 829 786 751 708 652
1310.0 625 622 630 641 669 705 741 804 874 945
1350.0 1046 1168 1315 1469 1639 1796 1903 1957 1943 1844
1390.0 1664 1451 1243 1060 920 832 801 793 785 782
1430.0 764 711 644 574 487 404 330 259 205 168
1470.0 144 120 91 69 50 39 36 30 16 10
1510.0 6 0 5 10 9 10 15 19 14 7
1550.0 6 16 31 39 41 46 51 54 59 51
1590.0 39 36 34 29 28 22 24 33 29 32
1630.0 33 38 50 53 53 66 77 87 108 123
1670.0 134 139 144 166 190 205 229 269 321 371
1710.0 430 516 632 771 954 1185 1478 1837 2278 2835
1750.0 3536 4402 5422 6585 7802 8876 9611 9958 10000 9697
1790.0 8890 7641 6209 4849 3699 2776 2067 1571 1204 930
1830.0 730 577 452 373 319 273 237 208 183 164
1870.0 157 139 126 120 115 104 89 86 81 65
1910.0 61 59 51 49 55 57 51 51 56 54
1950.0 50 47 46 47 51 52 48 40 43 53
1990.0 53 46 50 48 43 48 36 30 29 18
2030.0 26 30 22 29 35 30 29 34 33 27
2070.0 29 31 29 41 45 33 28 28 36 31
2110.0 21 29 45 42 36 42 39 34 36 34
2150.0 35 40 37 36 44 50 48 44 44 50
2190.0 52 48 45 42 47 54 52 43 46 60
2230.0 57 49 53 61 56 56 59 50 50 50
2270.0 42 39 41 45 55 58 61 59 61 67
2310.0 77 84 83 81 83 89 92 99 99 92
2350.0 84 91 109 121 114 99 84 67 50 40
2390.0 36 30 29 36 36 38 42 40 37 35
2430.0 34 39 42 39 35 42 46 44 43 45
2470.0 40 39 44 44 43 35 31 37 37 38
2510.0 34 36 43 39 31 27 32 36 44 44
2550.0 33 39 37 37 40 39 46 52 62 71
2590.0 76 79 77 76 72 62 49 43 47 52
2630.0 50 43 39 39 42 46 46 32 30 43
2670.0 37 35 35 31 32 39 37 27 44 49
2710.0 38 44 46 42 39 30 21 38 49 40
2750.0 40 44 34 31 36 36 30 28 32 34
2790.0 30 19 27 43 53 57 46 53 65 69
2830.0 68 68 81 89 88 82 95 106 98 99
2870.0 114 129 134 129 130 140 161 182 205 236
2910.0 269 313 354 382 414 453 479 500 546 590
2950.0 612 641 652 638 612 571 542 498 451 418
2990.0 386 371 340 297 265 236 217 207 178 143
3030.0 129 116 107 114 108 92 70 62 66 61
3070.0 67 72 66 57 52 51 51 63 57 49
3110.0 59 70 62 52 44 42 48 36 31 38
3150.0 46 47 38 26 32 50 63 61 50 41
3190.0 50 56 50 49 37 40 50 60 56 40
3230.0 52 66 64 50 39 43 38 46 49 26
3270.0 24 41 44 47 55 57 57 46 45 49
3310.0 43 56 66 79 85 65 51 42 36 47
3350.0 63 58 41 48 57 51 46 63 68 55
3390.0 61 64 56 56 49 50 77 74 78 98
3430.0 97 81 82 97 83 73 64 68 88 84
3470.0 87 101 112 115 111 130 141 130 130 154
3510.0 168 175 192 203 231 257 294 353 386 460
3550.0 613 859 1349 2174 3058 3518 3576 3528 3327 2678
3590.0 1743 1038 654 459 359 276 230 202 183 152
3630.0 141 153 146 134 111 110 126 116 110 115
3670.0 111 94 66 66 78 76 66 59 57 66
3710.0 68 64 80 79 77 69 66 71 51 53
3750.0 71 80 82 85 73 72 69 50 56 78
3790.0 86 79 85 88 72 65 75 95 92 90
3830.0 94 83 67 54 71
##END=
