##TITLE=2-Methylpentane
##JCAMP-DX=4.24
##DATA TYPE=INFRARED SPECTRUM
##ORIGIN=NIST Mass Spectrometry Data Center
##OWNER=NIST Standard Reference Data Program
Collection (C) 2018 copyright by the U.S. Secretary of Commerce
on behalf of the United States of America. All rights reserved.
##CAS REGISTRY NO=107-83-5
##MOLFORM=C 6 H 14
##$NIST SOURCE=MSDC-IR
##SPECTROMETER/DATA SYSTEM=HP-GC/MS/IRD
##STATE=gas
##XUNITS=1/CM
##YUNITS=ABSORBANCE
##XFACTOR=1.0
##YFACTOR=0.000006100
##DELTAX=4.0
##FIRSTX=550.0
##LASTX=3846.0
##FIRSTY=0.000866
##MAXX=3846
##MINX=550
##MAXY=0.061
##MINY=0
##NPOINTS=825
##XYDATA=(X++(Y..Y))
550.0 142 114 102 83 53 58 54 61 54 47
590.0 51 43 29 21 15 10 2 0 9 22
630.0 34 23 7 14 10 1 19 20 7 11
670.0 17 18 18 22 23 23 21 17 17 19
710.0 19 36 47 61 77 82 94 91 86 78
750.0 59 46 39 33 31 27 28 23 16 18
790.0 26 32 28 30 40 46 41 36 43 52
830.0 45 39 33 25 28 34 30 29 35 36
870.0 34 46 58 53 39 43 47 41 49 60
910.0 63 64 71 81 84 92 101 96 100 118
950.0 123 115 106 96 79 55 41 33 28 20
990.0 13 12 12 18 25 28 29 35 41 43
1030.0 49 43 43 43 44 45 40 43 40 37
1070.0 46 50 41 34 29 23 31 43 42 42
1110.0 43 50 56 66 80 98 114 130 152 168
1150.0 196 224 245 255 237 216 199 166 137 111
1190.0 89 74 59 55 53 45 50 53 54 66
1230.0 77 88 94 96 100 99 96 93 92 95
1270.0 90 86 90 95 94 90 91 97 102 111
1310.0 128 146 167 186 202 225 251 266 285 312
1350.0 350 406 479 548 595 638 724 808 822 810
1390.0 764 677 585 466 350 272 228 214 217 234
1430.0 275 342 428 534 653 782 908 1001 1046 1073
1470.0 1078 1026 910 782 653 529 424 330 252 199
1510.0 156 129 113 99 82 69 69 67 62 61
1550.0 57 54 57 51 47 50 51 52 52 47
1590.0 45 43 40 40 42 40 39 39 36 37
1630.0 35 36 41 42 45 44 41 39 38 34
1670.0 32 33 35 35 31 34 33 29 26 28
1710.0 32 31 28 24 23 22 23 21 18 15
1750.0 17 17 16 19 18 17 14 13 12 15
1790.0 14 15 15 14 13 9 12 10 12 16
1830.0 10 9 13 13 12 11 12 16 16 15
1870.0 14 12 11 10 10 8 6 4 2 9
1910.0 6 3 7 10 9 4 3 4 4 8
1950.0 8 5 5 2 3 2 3 5 6 7
1990.0 7 4 4 6 5 5 6 5 6 8
2030.0 7 4 4 5 5 3 4 4 4 4
2070.0 4 6 7 4 3 3 2 1 2 7
2110.0 8 9 7 7 10 11 5 3 7 4
2150.0 6 4 0 1 7 9 6 8 10 9
2190.0 15 16 12 12 13 10 9 9 8 7
2230.0 5 9 8 5 2 5 6 4 6 6
2270.0 5 5 6 5 6 3 6 6 6 10
2310.0 9 10 10 12 12 9 7 12 11 9
2350.0 9 10 12 14 15 16 13 11 13 10
2390.0 9 13 15 19 21 22 20 17 11 3
2430.0 5 8 4 2 1 0 4 8 7 7
2470.0 5 5 7 5 10 13 13 13 15 13
2510.0 11 15 14 13 14 15 15 11 9 10
2550.0 13 18 24 24 24 27 29 33 35 42
2590.0 48 51 54 59 60 61 63 65 67 67
2630.0 70 69 64 63 64 64 62 63 59 57
2670.0 59 63 64 68 73 75 77 81 88 98
2710.0 109 117 129 140 150 156 161 174 180 176
2750.0 172 172 171 170 174 181 192 201 216 238
2790.0 250 265 285 304 330 366 404 454 513 585
2830.0 681 798 940 1111 1297 1510 1758 2043 2389 2803
2870.0 3250 3636 3898 4113 4318 4477 4581 4651 4739 4886
2910.0 5093 5307 5516 5740 5990 6249 6492 6727 7028 7484
2950.0 8138 8961 9723 10000 9667 9061 8172 6888 5359 3853
2990.0 2677 1883 1361 1022 815 681 586 524 481 440
3030.0 404 379 363 344 321 297 283 275 266 254
3070.0 245 238 234 224 215 211 202 188 181 181
3110.0 172 157 143 139 135 131 130 129 137 140
3150.0 136 135 132 130 131 132 128 119 114 112
3190.0 111 106 96 93 83 73 67 56 51 47
3230.0 39 35 36 35 26 22 25 28 27 23
3270.0 15 18 30 30 23 22 24 27 25 26
3310.0 24 20 23 23 20 19 26 26 23 29
3350.0 28 24 28 27 25 22 20 20 23 25
3390.0 21 23 24 17 28 31 23 23 19 19
3430.0 18 14 15 9 8 5 0 8 16 13
3470.0 12 19 16 9 19 21 18 27 27 17
3510.0 11 11 7 9 12 12 16 16 16 14
3550.0 15 13 14 22 21 22 19 16 19 18
3590.0 20 26 35 38 29 27 33 31 29 31
3630.0 36 34 28 29 30 33 38 38 42 39
3670.0 35 41 44 43 39 38 33 33 35 34
3710.0 34 31 29 31 28 30 37 45 44 38
3750.0 36 39 45 45 42 48 53 45 40 49
3790.0 53 52 54 50 48 48 50 51 52 51
3830.0 48 55 55 52 52
##END=
