##TITLE=Allyl cyanide
##JCAMP-DX=4.24
##DATA TYPE=INFRARED SPECTRUM
##ORIGIN=NIST Mass Spectrometry Data Center
##OWNER=NIST Standard Reference Data Program
Collection (C) 2018 copyright by the U.S. Secretary of Commerce
on behalf of the United States of America. All rights reserved.
##CAS REGISTRY NO=109-75-1
##MOLFORM=C 4 H 5 N
##$NIST SOURCE=MSDC-IR
##SPECTROMETER/DATA SYSTEM=HP-GC/MS/IRD
##STATE=gas
##XUNITS=1/CM
##YUNITS=ABSORBANCE
##XFACTOR=1.0
##YFACTOR=0.000000600
##DELTAX=4.0
##FIRSTX=550.0
##LASTX=3846.0
##FIRSTY=0.001402
##MAXX=3846
##MINX=550
##MAXY=0.006
##MINY=0
##NPOINTS=825
##XYDATA=(X++(Y..Y))
550.0 2337 2800 2481 1685 1501 1389 1169 1110 952 833
590.0 934 936 969 983 928 947 963 1003 1069 940
630.0 782 733 665 609 542 560 557 442 406 391
670.0 473 620 692 711 610 552 641 618 630 560
710.0 454 398 367 382 327 244 230 183 171 235
750.0 138 40 98 65 85 187 184 116 70 92
790.0 93 86 74 72 144 208 210 194 182 223
830.0 323 419 427 442 507 540 693 877 976 1044
870.0 1171 1404 1669 1973 2420 2977 3622 4208 4793 5437
910.0 6113 6870 7656 8343 9096 10000 9751 9329 9367 8821
950.0 8351 8014 7625 7197 6892 6684 6501 6330 6392 6583
990.0 5898 5193 4901 4466 3944 3482 3041 2569 2182 1766
1030.0 1522 1401 1252 1060 910 872 877 842 747 684
1070.0 613 526 573 616 703 788 803 902 918 785
1110.0 690 702 727 751 722 630 482 338 299 250
1150.0 344 367 271 290 290 250 291 374 391 430
1190.0 405 356 392 450 459 401 446 531 550 539
1230.0 567 573 517 486 518 594 668 666 708 834
1270.0 976 1105 1185 1205 1146 1138 1185 1189 1157 1016
1310.0 843 719 610 520 460 407 389 397 405 408
1350.0 426 466 483 513 540 598 718 886 1071 1283
1390.0 1588 1936 2317 2753 3188 3570 3921 4161 4066 3722
1430.0 3590 3689 3680 3388 2951 2484 2045 1685 1409 1150
1470.0 931 765 641 555 492 433 406 366 289 255
1510.0 252 247 248 264 287 296 293 296 310 335
1550.0 352 325 328 352 320 312 303 294 294 281
1590.0 278 286 353 443 523 626 768 1013 1335 1762
1630.0 2259 2675 2924 2945 2857 2807 2794 2715 2318 1639
1670.0 1037 653 448 340 283 236 216 204 173 147
1710.0 142 126 88 118 136 109 105 109 91 101
1750.0 104 90 90 97 98 95 138 126 98 128
1790.0 142 166 157 166 188 188 213 255 303 340
1830.0 371 435 505 567 657 780 860 882 890 886
1870.0 897 921 844 730 613 481 418 396 380 324
1910.0 295 279 238 204 195 218 226 225 235 243
1950.0 280 313 297 281 252 229 224 194 184 174
1990.0 138 103 115 117 104 135 118 90 97 113
2030.0 124 120 116 105 109 96 68 79 109 113
2070.0 105 108 90 67 66 83 75 72 70 78
2110.0 89 95 83 68 63 52 52 55 82 98
2150.0 75 70 97 74 57 81 59 55 89 73
2190.0 58 78 82 89 77 64 83 106 125 155
2230.0 239 294 344 397 417 464 515 522 521 531
2270.0 481 407 343 279 244 204 183 169 149 154
2310.0 148 145 121 151 197 164 136 161 163 159
2350.0 152 100 132 153 136 175 189 184 175 161
2390.0 159 151 140 123 127 142 146 171 162 126
2430.0 120 104 114 109 82 82 79 107 110 104
2470.0 102 103 100 75 93 118 129 106 63 77
2510.0 96 81 58 49 91 131 134 109 75 62
2550.0 89 88 64 88 119 128 106 129 150 150
2590.0 154 163 202 178 164 182 189 158 139 170
2630.0 156 159 165 126 113 109 84 88 109 139
2670.0 105 55 118 130 67 72 95 136 183 184
2710.0 175 196 194 212 206 143 132 168 177 164
2750.0 153 135 101 97 108 68 46 78 96 113
2790.0 122 157 223 243 266 335 347 360 384 360
2830.0 360 340 316 336 374 376 336 279 244 287
2870.0 300 282 293 335 386 449 550 651 778 919
2910.0 1048 1208 1313 1320 1295 1333 1502 1599 1524 1472
2950.0 1401 1291 1225 1242 1205 1180 1281 1305 1291 1308
2990.0 1321 1342 1445 1475 1530 1700 1825 2012 2156 2098
3030.0 2003 2031 2002 1932 1967 1906 1717 1572 1530 1565
3070.0 1676 1883 2142 2477 2879 3107 3051 2983 2982 2915
3110.0 2831 2635 2164 1626 1261 1003 843 679 535 492
3150.0 426 380 404 363 270 239 278 291 317 337
3190.0 285 218 216 245 226 169 230 252 200 263
3230.0 254 250 275 258 227 205 201 137 141 135
3270.0 73 122 178 156 129 121 122 165 160 108
3310.0 111 118 125 129 127 160 132 0 16 125
3350.0 177 212 237 206 93 66 111 127 124 50
3390.0 17 90 111 128 184 178 165 105 97 102
3430.0 77 85 94 169 138 97 132 119 108 135
3470.0 168 149 111 131 177 206 192 168 187 230
3510.0 212 172 167 235 227 148 166 202 180 183
3550.0 224 242 229 141 135 156 164 169 127 144
3590.0 158 118 120 165 218 188 191 212 241 229
3630.0 186 146 112 110 109 138 167 175 187 234
3670.0 117 55 146 173 204 228 247 249 208 165
3710.0 150 179 183 160 154 171 172 115 94 136
3750.0 117 65 71 123 104 35 143 115 62 200
3790.0 202 198 215 155 169 156 90 86 200 216
3830.0 100 91 130 210 215
##END=
