##TITLE=2-Methyl-1,3-pentadiene
##JCAMP-DX=4.24
##DATA TYPE=INFRARED SPECTRUM
##ORIGIN=NIST Mass Spectrometry Data Center
##OWNER=NIST Standard Reference Data Program
Collection (C) 2018 copyright by the U.S. Secretary of Commerce
on behalf of the United States of America. All rights reserved.
##CAS REGISTRY NO=1118-58-7
##MOLFORM=C 6 H 10
##$NIST SOURCE=MSDC-IR
##SPECTROMETER/DATA SYSTEM=HP-GC/MS/IRD
##STATE=gas
##XUNITS=1/CM
##YUNITS=ABSORBANCE
##XFACTOR=1.0
##YFACTOR=0.000002300
##DELTAX=4.0
##FIRSTX=550.0
##LASTX=3846.0
##FIRSTY=0.000474
##MAXX=3846
##MINX=550
##MAXY=0.023
##MINY=0
##NPOINTS=825
##XYDATA=(X++(Y..Y))
550.0 206 120 118 89 139 125 52 66 58 85
590.0 148 149 136 121 183 251 248 225 232 277
630.0 265 273 329 315 302 298 277 306 323 312
670.0 306 304 317 341 339 298 295 330 346 314
710.0 279 309 308 294 307 291 288 284 275 269
750.0 293 313 291 278 305 321 353 405 460 524
790.0 569 635 746 873 966 1121 1211 1112 1060 1053
830.0 1030 1072 1086 1137 1308 1602 2037 2562 3192 3802
870.0 4333 4898 5766 7267 7613 6386 5486 4980 4480 3946
910.0 3407 2949 2721 2752 3022 3471 4029 4650 5284 5794
950.0 6065 6424 7468 8383 7116 5578 5197 4769 4208 3607
990.0 3028 2519 2198 2037 1904 1775 1617 1467 1358 1236
1030.0 1045 841 762 703 600 577 548 497 446 432
1070.0 439 422 388 388 411 405 376 354 308 274
1110.0 267 253 245 212 178 158 163 184 177 119
1150.0 81 68 37 10 23 40 26 8 10 0
1190.0 4 48 82 94 106 129 148 189 261 287
1230.0 277 293 284 261 232 216 229 263 283 310
1270.0 346 355 395 477 554 656 772 867 938 981
1310.0 1006 982 921 837 742 702 704 729 791 877
1350.0 987 1116 1298 1540 1811 2089 2307 2386 2355 2457
1390.0 2552 2315 1938 1683 1589 1615 1691 1828 2034 2247
1430.0 2484 2765 3164 3688 3954 3861 3758 3675 3554 3300
1470.0 2877 2395 1977 1657 1432 1270 1138 1047 970 897
1510.0 847 805 762 740 737 719 703 701 702 732
1550.0 767 793 818 853 890 967 1072 1179 1342 1580
1590.0 1874 2219 2546 2779 2888 2922 2964 2980 2830 2497
1630.0 2179 1993 1869 1773 1669 1546 1416 1280 1144 1005
1670.0 844 644 493 387 315 291 270 254 244 253
1710.0 262 248 251 265 273 295 339 389 461 567
1750.0 689 843 1042 1255 1396 1435 1430 1400 1335 1174
1790.0 947 744 591 503 419 358 330 310 295 291
1830.0 300 320 347 355 346 336 319 285 245 208
1870.0 173 151 136 120 123 125 123 127 127 118
1910.0 113 115 120 108 99 115 126 114 102 99
1950.0 97 101 105 106 117 110 106 119 122 143
1990.0 166 172 176 168 160 142 120 116 102 91
2030.0 85 70 76 84 79 75 77 85 89 93
2070.0 84 73 84 104 99 86 81 67 62 59
2110.0 71 83 81 82 84 72 62 64 48 47
2150.0 40 37 53 52 55 62 52 45 59 74
2190.0 71 78 82 79 74 66 75 87 79 63
2230.0 60 75 99 101 89 82 62 62 72 75
2270.0 61 44 58 60 60 69 81 100 114 109
2310.0 106 106 94 93 92 83 75 65 72 91
2350.0 106 97 69 67 75 82 97 110 126 130
2390.0 110 109 128 144 140 118 89 83 87 88
2430.0 105 103 84 80 89 89 85 94 113 123
2470.0 115 126 141 130 116 107 101 90 87 94
2510.0 97 79 78 95 92 88 82 90 109 110
2550.0 107 106 115 125 114 117 119 113 111 116
2590.0 128 117 93 96 121 125 112 121 124 99
2630.0 107 118 116 113 95 112 137 113 98 119
2670.0 131 138 148 146 153 169 196 201 192 197
2710.0 217 245 285 362 432 497 560 603 625 638
2750.0 631 588 517 450 415 436 443 435 467 510
2790.0 530 557 597 628 680 755 807 860 918 980
2830.0 1086 1227 1411 1661 1961 2390 2930 3514 4021 4346
2870.0 4625 4903 5080 5121 5103 5099 5091 5134 5361 5811
2910.0 6525 7482 8468 9168 9537 9758 9963 10000 9655 9149
2950.0 8634 8281 8129 8118 8286 8535 8702 8764 8690 8508
2990.0 8181 7454 6671 6151 5902 5801 5734 5722 5684 5545
3030.0 5343 5177 5079 4853 4404 3907 3503 3275 3216 3266
3070.0 3501 4025 4608 4733 4497 4274 4181 3945 3158 2253
3110.0 1636 1303 1106 961 870 807 731 674 629 599
3150.0 567 537 514 451 367 353 348 325 287 236
3190.0 239 250 264 255 230 221 204 170 190 237
3230.0 209 151 150 149 149 185 163 154 178 178
3270.0 157 163 182 168 160 153 150 149 153 168
3310.0 154 139 134 134 155 162 135 143 150 114
3350.0 113 138 134 122 110 100 107 106 105 116
3390.0 110 104 115 125 131 127 131 147 144 126
3430.0 120 124 123 156 148 136 137 148 161 109
3470.0 89 113 114 101 104 118 102 88 117 141
3510.0 139 83 45 71 77 90 101 119 141 124
3550.0 107 125 164 178 138 87 103 106 93 99
3590.0 82 100 109 95 100 98 85 90 114 117
3630.0 124 127 129 116 81 84 94 110 113 98
3670.0 109 109 138 177 168 141 150 141 131 130
3710.0 106 104 117 115 107 127 150 151 121 140
3750.0 160 173 143 154 182 176 181 184 168 184
3790.0 192 173 163 126 120 139 134 147 188 181
3830.0 159 146 139 179 156
##END=
