##TITLE=2,3-Dihydrofuran
##JCAMP-DX=4.24
##DATA TYPE=INFRARED SPECTRUM
##ORIGIN=NIST Mass Spectrometry Data Center
##OWNER=NIST Standard Reference Data Program
Collection (C) 2018 copyright by the U.S. Secretary of Commerce
on behalf of the United States of America. All rights reserved.
##CAS REGISTRY NO=1191-99-7
##MOLFORM=C 4 H 6 O
##$NIST SOURCE=MSDC-IR
##SPECTROMETER/DATA SYSTEM=HP-GC/MS/IRD
##STATE=gas
##XUNITS=1/CM
##YUNITS=ABSORBANCE
##XFACTOR=1.0
##YFACTOR=0.000001900
##DELTAX=4.0
##FIRSTX=550.0
##LASTX=3846.0
##FIRSTY=0.000264
##MAXX=3846
##MINX=550
##MAXY=0.019
##MINY=0
##NPOINTS=825
##XYDATA=(X++(Y..Y))
550.0 139 109 30 0 109 109 92 169 129 156
590.0 230 173 210 211 182 228 293 240 197 259
630.0 277 290 359 469 555 665 901 1157 1426 1843
670.0 2269 2696 3018 3139 3110 3205 3696 6647 10000 7488
710.0 3782 3283 3491 3655 3604 3260 2716 2235 1863 1545
750.0 1262 1015 836 772 770 716 679 665 602 582
790.0 591 602 652 717 772 799 841 900 940 962
830.0 1018 1085 1132 1178 1230 1311 1386 1440 1478 1534
870.0 1632 1842 2322 3032 3291 3279 3815 4646 5594 6569
910.0 7393 7816 7611 7234 7533 7888 7075 5430 3845 2730
950.0 2056 1621 1326 1181 1130 1087 1079 1137 1198 1220
990.0 1222 1221 1281 1431 1609 1726 1750 1800 2021 2472
1030.0 3219 4227 5423 6596 7448 7806 7585 7195 7433 7981
1070.0 8027 7694 7110 6062 4771 3584 2697 2199 2145 2493
1110.0 3129 4019 5017 5728 6034 6200 6429 6641 6733 6754
1150.0 6810 6650 5996 4971 3865 2961 2324 1922 1803 1767
1190.0 1574 1269 1068 1025 996 944 914 906 924 926
1230.0 880 902 986 1067 1208 1357 1456 1518 1548 1575
1270.0 1612 1612 1578 1554 1482 1344 1149 939 766 620
1310.0 493 423 391 359 346 364 375 384 405 456
1350.0 499 544 585 596 619 648 698 756 798 812
1390.0 812 795 726 642 578 528 503 488 460 454
1430.0 453 424 394 391 378 362 366 352 359 377
1470.0 362 329 314 284 258 261 256 233 195 174
1510.0 203 209 188 187 213 249 273 319 416 533
1550.0 690 899 1102 1328 1601 1858 2126 2493 2936 3457
1590.0 4071 4714 5243 5543 5548 5404 5271 5150 4985 4788
1630.0 4581 4217 3565 2725 1880 1244 818 567 429 335
1670.0 289 256 220 200 183 184 177 166 164 174
1710.0 192 197 206 232 272 316 350 388 438 477
1750.0 504 531 522 510 515 482 466 478 446 382
1790.0 328 278 238 218 207 204 206 204 196 200
1830.0 210 214 231 231 205 183 176 159 126 119
1870.0 138 140 142 145 147 146 145 152 171 175
1910.0 155 153 147 156 173 171 174 185 189 210
1950.0 237 249 244 243 250 258 265 272 276 262
1990.0 226 200 192 193 166 144 136 123 137 146
2030.0 134 132 134 139 141 137 136 152 156 144
2070.0 144 142 143 157 160 164 180 196 206 208
2110.0 213 218 212 192 191 190 177 177 154 126
2150.0 124 121 118 121 135 162 171 174 187 191
2190.0 197 186 185 197 203 188 171 164 154 145
2230.0 139 112 88 89 95 108 116 141 142 126
2270.0 127 139 153 153 134 119 106 92 96 97
2310.0 76 53 43 31 27 35 24 29 37 42
2350.0 51 40 19 20 32 38 44 49 45 39
2390.0 41 35 42 43 31 38 47 53 47 46
2430.0 49 34 32 38 35 28 12 0 9 22
2470.0 10 6 19 26 38 43 41 39 36 50
2510.0 44 25 29 35 44 54 47 24 30 62
2550.0 60 51 41 33 34 50 37 23 42 44
2590.0 41 33 41 53 51 56 56 43 32 41
2630.0 79 111 113 123 130 147 162 171 183 163
2670.0 175 200 193 215 224 210 189 171 184 170
2710.0 161 155 172 202 213 228 227 255 301 307
2750.0 297 306 317 331 330 321 336 345 351 358
2790.0 383 402 410 439 492 537 573 629 734 860
2830.0 954 1054 1255 1535 1865 2267 2695 3019 3253 3509
2870.0 3840 4165 4500 4835 5088 5316 5389 5287 5241 5352
2910.0 5481 5589 5692 5901 6597 7428 7299 6875 6949 7131
2950.0 7375 7606 8109 9617 9402 7221 6246 5775 5296 4861
2990.0 4361 3856 3299 2692 2124 1695 1385 1114 943 823
3030.0 713 637 582 527 508 503 471 456 469 473
3070.0 487 527 577 649 779 869 938 1003 1034 1080
3110.0 1053 1014 1011 1015 957 865 766 607 438 328
3150.0 246 183 145 122 109 105 96 74 77 89
3190.0 65 64 88 103 144 166 148 130 129 140
3230.0 123 122 139 139 134 98 77 58 28 40
3270.0 50 57 75 73 40 36 61 29 39 72
3310.0 49 44 61 52 20 0 1 38 68 78
3350.0 74 67 53 43 47 35 39 59 87 65
3390.0 38 50 38 36 55 56 38 27 22 43
3430.0 43 35 51 68 75 70 46 50 80 83
3470.0 55 24 48 52 33 33 23 44 67 54
3510.0 61 64 30 23 28 1 26 67 68 65
3550.0 61 64 79 66 73 81 52 40 11 9
3590.0 11 29 53 57 88 85 46 33 56 66
3630.0 78 96 60 59 50 42 65 90 69 35
3670.0 22 15 14 14 20 42 44 21 57 74
3710.0 51 48 22 7 19 51 62 54 77 76
3750.0 45 26 52 62 59 71 47 47 68 63
3790.0 56 56 76 83 73 79 66 69 88 95
3830.0 96 71 65 84 83
##END=
