##TITLE=Cyclobutanone
##JCAMP-DX=4.24
##DATA TYPE=INFRARED SPECTRUM
##ORIGIN=NIST Mass Spectrometry Data Center
##OWNER=NIST Standard Reference Data Program
Collection (C) 2018 copyright by the U.S. Secretary of Commerce
on behalf of the United States of America. All rights reserved.
##CAS REGISTRY NO=1191-95-3
##MOLFORM=C 4 H 6 O
##$NIST SOURCE=MSDC-IR
##SPECTROMETER/DATA SYSTEM=HP-GC/MS/IRD
##STATE=gas
##XUNITS=1/CM
##YUNITS=ABSORBANCE
##XFACTOR=1.0
##YFACTOR=0.000015200
##DELTAX=4.0
##FIRSTX=550.0
##LASTX=3846.0
##FIRSTY=0.000304
##MAXX=3846
##MINX=550
##MAXY=0.152
##MINY=0
##NPOINTS=825
##XYDATA=(X++(Y..Y))
550.0 20 5 3 2 13 13 8 4 7 9
590.0 13 19 20 22 24 20 17 18 22 26
630.0 24 23 24 27 32 37 42 45 45 53
670.0 56 57 65 70 76 86 92 98 115 126
710.0 138 144 126 113 106 98 102 96 87 78
750.0 70 70 74 73 77 83 84 88 93 91
790.0 92 97 95 92 91 89 85 82 77 70
830.0 67 71 71 64 68 68 66 64 59 53
870.0 47 44 43 41 38 37 33 32 34 35
910.0 38 40 44 48 54 65 75 81 83 84
950.0 85 91 91 89 95 96 90 90 97 107
990.0 120 141 170 204 241 284 333 396 470 570
1030.0 704 867 1059 1274 1506 1713 1842 1886 1912 2001
1070.0 2122 2086 1866 1626 1367 1078 815 615 486 408
1110.0 360 325 290 249 226 218 202 193 188 177
1150.0 161 146 128 114 117 124 133 146 168 202
1190.0 233 251 261 290 335 332 335 372 374 337
1230.0 291 252 229 222 222 226 223 205 181 162
1270.0 145 131 116 106 95 84 79 75 75 77
1310.0 81 85 92 101 103 98 98 109 119 123
1350.0 126 130 139 157 187 226 275 337 406 475
1390.0 532 546 494 453 507 568 551 488 414 342
1430.0 282 235 195 161 135 119 106 96 91 89
1470.0 86 86 85 82 78 75 73 67 62 59
1510.0 57 55 51 46 43 42 39 36 36 37
1550.0 36 39 41 44 48 51 56 61 63 63
1590.0 65 64 63 62 57 52 49 49 49 49
1630.0 51 53 54 58 61 64 65 65 68 73
1670.0 78 81 83 85 88 92 94 95 98 105
1710.0 114 125 137 155 182 214 254 304 368 451
1750.0 560 714 928 1232 1642 2183 2887 3756 4806 6025
1790.0 7305 8403 9076 9447 9786 10000 9731 8966 8430 7751
1830.0 6193 4230 2552 1478 900 605 449 353 292 254
1870.0 228 208 194 180 169 160 152 145 138 129
1910.0 120 114 109 105 100 98 98 103 106 109
1950.0 112 116 115 111 108 105 100 95 87 78
1990.0 69 61 56 55 55 54 55 55 56 57
2030.0 56 54 53 53 52 51 49 49 49 48
2070.0 49 50 50 52 54 57 60 64 69 71
2110.0 71 74 75 75 73 70 67 65 64 59
2150.0 53 49 45 39 37 35 33 31 28 27
2190.0 27 28 26 24 23 23 22 22 19 16
2230.0 16 18 20 19 18 18 18 19 18 18
2270.0 20 20 22 25 26 25 25 26 25 26
2310.0 26 24 22 22 22 21 21 17 15 15
2350.0 14 13 12 12 14 13 13 11 9 6
2390.0 5 6 5 6 6 5 6 8 6 5
2430.0 7 8 7 10 13 17 20 23 28 33
2470.0 37 39 40 39 41 41 37 33 27 21
2510.0 18 15 11 9 9 10 9 7 3 2
2550.0 3 3 0 0 5 7 6 2 2 3
2590.0 2 2 2 3 2 4 5 5 6 5
2630.0 5 6 7 6 7 6 5 5 7 7
2670.0 9 12 13 13 12 10 9 9 8 8
2710.0 8 7 8 12 14 14 15 17 18 18
2750.0 22 23 24 28 30 32 36 39 44 48
2790.0 50 50 46 51 57 58 55 51 50 52
2830.0 53 53 58 63 68 77 88 100 113 130
2870.0 150 173 197 226 256 284 314 342 374 419
2910.0 475 542 626 722 815 878 896 888 918 1028
2950.0 1163 1269 1345 1380 1388 1399 1452 1500 1420 1357
2990.0 1370 1370 1364 1580 1642 1117 781 721 661 618
3030.0 555 483 405 332 268 221 188 164 156 151
3070.0 146 142 138 127 118 113 106 94 81 70
3110.0 59 48 42 35 25 19 17 17 15 11
3150.0 8 7 8 7 4 5 8 6 3 3
3190.0 6 6 6 5 4 3 4 4 1 2
3230.0 2 1 2 2 4 6 3 1 0 0
3270.0 4 5 2 3 5 3 7 7 1 1
3310.0 3 3 5 4 2 5 6 6 8 10
3350.0 9 8 11 16 19 22 20 16 17 19
3390.0 22 21 17 16 15 17 12 9 13 8
3430.0 7 12 11 8 6 7 9 8 5 7
3470.0 7 4 9 12 13 11 8 8 11 12
3510.0 11 12 14 17 21 22 25 33 35 38
3550.0 48 59 73 85 101 118 137 154 168 182
3590.0 187 191 198 198 186 176 160 138 118 104
3630.0 88 71 62 54 43 37 36 31 27 26
3670.0 22 20 18 14 12 13 13 11 8 10
3710.0 12 9 9 9 10 15 12 9 10 11
3750.0 9 8 5 10 12 7 10 9 10 7
3790.0 4 5 5 7 10 12 12 11 11 13
3830.0 10 10 16 16 12
##END=
