##TITLE=Cyclopropylmethanol
##JCAMP-DX=4.24
##DATA TYPE=INFRARED SPECTRUM
##ORIGIN=NIST Mass Spectrometry Data Center
##OWNER=NIST Standard Reference Data Program
Collection (C) 2018 copyright by the U.S. Secretary of Commerce
on behalf of the United States of America. All rights reserved.
##CAS REGISTRY NO=2516-33-8
##MOLFORM=C 4 H 8 O
##SOURCE REFERENCE=No.221900 (NIST/EPA/NIH MS Database)
##$NIST SOURCE=MSDC-IR
##SPECTROMETER/DATA SYSTEM=HP-GC/MS/IRD
##STATE=gas
##XUNITS=1/CM
##YUNITS=ABSORBANCE
##XFACTOR=1.0
##YFACTOR=0.000002600
##DELTAX=4.0
##FIRSTX=550.0
##LASTX=3846.0
##FIRSTY=0.000515
##MAXX=3846
##MINX=550
##MAXY=0.026
##MINY=0
##NPOINTS=825
##XYDATA=(X++(Y..Y))
550.0 198 202 201 162 126 138 130 91 68 77
590.0 83 69 51 30 20 39 40 21 12 9
630.0 32 32 22 37 42 21 0 11 21 19
670.0 32 31 27 49 23 8 35 44 38 41
710.0 60 72 62 62 88 111 139 154 172 207
750.0 237 264 300 341 351 335 354 397 421 426
790.0 443 491 526 559 612 667 722 734 690 637
830.0 635 664 666 620 575 541 479 422 409 408
870.0 393 391 428 482 526 568 596 641 702 766
910.0 822 860 877 888 913 960 1001 1021 1020 1027
950.0 1049 1081 1151 1271 1404 1552 1733 1968 2268 2633
990.0 3040 3486 3999 4601 5308 6187 7274 8426 9357 9908
1030.0 10000 9728 9356 8945 8355 7365 5830 4106 2727 1844
1070.0 1325 1018 829 722 668 642 636 641 656 671
1110.0 691 710 738 777 804 812 845 879 891 898
1150.0 910 905 902 912 916 903 894 899 918 936
1190.0 959 988 1005 1038 1092 1122 1128 1124 1096 1078
1230.0 1072 1054 1028 994 952 925 898 866 831 812
1270.0 786 764 751 726 707 683 668 651 623 597
1310.0 577 570 577 601 644 705 781 860 936 1000
1350.0 1044 1088 1119 1139 1175 1209 1261 1344 1450 1572
1390.0 1686 1781 1837 1857 1843 1780 1677 1559 1409 1209
1430.0 1014 873 785 731 675 615 561 510 484 458
1470.0 430 431 403 354 322 282 247 226 202 171
1510.0 154 133 107 96 84 80 74 57 47 51
1550.0 59 56 44 44 43 43 43 41 55 57
1590.0 45 41 36 33 29 28 30 30 29 33
1630.0 40 33 25 23 31 24 13 21 20 19
1670.0 21 20 20 15 14 17 9 2 7 12
1710.0 18 13 5 16 24 20 16 18 19 22
1750.0 26 29 28 35 42 39 49 62 69 77
1790.0 77 75 81 84 83 72 65 65 62 62
1830.0 65 67 66 63 70 70 67 75 73 72
1870.0 72 68 69 75 77 79 76 86 100 107
1910.0 112 114 117 119 123 131 125 117 112 102
1950.0 96 88 81 77 74 70 65 62 60 54
1990.0 57 60 64 65 66 73 82 88 92 103
2030.0 116 126 134 146 155 159 164 172 178 176
2070.0 173 165 157 147 129 116 111 96 84 85
2110.0 77 71 61 56 53 46 43 38 38 40
2150.0 37 27 22 21 23 30 26 24 30 34
2190.0 35 38 38 35 33 33 34 34 33 28
2230.0 18 18 21 23 27 27 21 19 18 16
2270.0 17 17 12 5 2 3 8 12 13 10
2310.0 6 8 5 6 8 3 2 2 6 13
2350.0 8 6 6 6 5 15 22 26 28 26
2390.0 28 28 29 32 32 27 26 31 29 24
2430.0 29 35 38 33 32 33 30 41 55 55
2470.0 55 57 51 37 33 44 42 30 32 36
2510.0 35 33 30 27 24 25 26 23 16 19
2550.0 24 27 27 25 23 28 36 33 35 35
2590.0 31 34 41 46 46 45 43 44 44 42
2630.0 38 37 37 40 49 57 63 66 66 76
2670.0 79 81 82 81 94 109 113 115 122 124
2710.0 128 138 145 149 161 173 185 198 203 209
2750.0 225 240 253 266 275 286 303 317 333 363
2790.0 382 410 448 469 496 527 568 622 685 762
2830.0 851 963 1089 1234 1401 1579 1790 2016 2245 2479
2870.0 2681 2859 2991 3064 3098 3101 3097 3091 3060 3010
2910.0 2956 2891 2804 2716 2636 2549 2451 2344 2223 2098
2950.0 1964 1819 1683 1570 1496 1449 1421 1436 1498 1610
2990.0 1777 1993 2245 2496 2690 2801 2858 2917 2962 2878
3030.0 2622 2299 1992 1704 1460 1276 1160 1114 1146 1249
3070.0 1411 1587 1716 1772 2004 2074 1755 1613 1505 1263
3110.0 1009 771 581 435 312 222 163 115 83 60
3150.0 50 45 26 20 22 24 20 16 11 15
3190.0 22 19 16 19 17 17 10 2 7 16
3230.0 24 30 28 37 45 32 31 43 42 32
3270.0 25 16 12 23 22 10 11 10 18 41
3310.0 33 27 31 23 20 25 26 22 29 31
3350.0 34 33 28 31 35 28 29 45 50 48
3390.0 56 61 52 52 58 44 56 72 61 71
3430.0 85 84 72 72 87 86 87 86 77 65
3470.0 61 77 81 79 84 86 70 73 89 76
3510.0 67 68 72 75 76 78 71 52 59 78
3550.0 63 57 64 67 77 89 97 98 82 75
3590.0 93 110 120 138 155 169 210 260 302 363
3630.0 446 551 656 734 821 919 1002 1061 1093 1078
3670.0 1043 979 885 788 669 542 435 350 275 214
3710.0 172 146 132 118 108 109 105 101 90 88
3750.0 95 91 97 107 105 98 103 115 116 106
3790.0 95 88 97 106 105 113 113 104 115 117
3830.0 119 129 146 153 155
##END=
