##TITLE=SULFURYL FLUORIDE
##JCAMP-DX=4.24
##DATA TYPE=INFRARED SPECTRUM
##CLASS=COBLENTZ
##ORIGIN=DOW CHEMICAL COMPANY
##OWNER=COBLENTZ SOCIETY
Collection (C) 2018 copyright by the U.S. Secretary of Commerce
on behalf of the United States of America. All rights reserved.
##DATE=1977/02/17
##NAMES=sulfuryl difluoride
##CAS REGISTRY NO=2699-79-8
##MOLFORM=F2 O2 S
##SOURCE REFERENCE=COBLENTZ NO. 10496
##$NIST SOURCE=COBLENTZ
##$NIST IMAGE=cob10496
##SPECTROMETER/DATA SYSTEM=PERKIN-ELMER 180
##INSTRUMENT PARAMETERS=I0 MODE RESOLUTION: 1 CM^-^1 AT 4000 CM^-^1
##STATE=GAS (2.1 mmHg DILUTED TO A TOTAL PRESSURE OF 600 mmHg WITH N2)
##PATH LENGTH=10 CM CELL
##SAMPLING PROCEDURE=TRANSMISSION
##RESOLUTION=4
##DATA PROCESSING=DIGITIZED BY NIST FROM HARD COPY (FROM TWO SEGMENTS)
##XUNITS=1/CM
##YUNITS=TRANSMITTANCE
##XFACTOR=1.000000
##YFACTOR=1
##DELTAX=1.045755
##FIRSTX=192.941
##LASTX=4000.53
##FIRSTY=0
##MAXX=4000.53
##MINX=192.941
##MAXY=0.956998
##MINY=0
##NPOINTS=3642
##XYDATA=(X++(Y..Y))
192.941000 0.0000 0.0000 0.0000 0.0000 0.0000
198.169773 0.0000 0.0000 0.0000 0.0000 0.0000
203.398545 0.0000 0.0000 0.0000 0.0000 0.0000
208.627318 0.0000 0.0000 0.0000 0.0000 0.0000
213.856091 0.0000 0.0000 0.0000 0.0000 0.0000
219.084864 0.0000 0.0000 0.0000 0.0000 0.0000
224.313636 0.0000 0.0000 0.0000 0.0000 0.0000
229.542409 0.0000 0.0000 0.0000 0.0000 0.0000
234.771182 0.0000 0.0000 0.0000 0.0010 0.0030
239.999955 0.0040 0.0040 0.0030 0.0030 0.0020
245.228727 0.0020 0.0020 0.0020 0.0020 0.0030
250.457500 0.0030 0.0030 0.0040 0.0040 0.0040
255.686273 0.0050 0.0050 0.0050 0.0060 0.0070
260.915046 0.0070 0.0080 0.0080 0.0080 0.0080
266.143818 0.0080 0.0070 0.0060 0.0050 0.0040
271.372591 0.0040 0.0040 0.0030 0.0030 0.0030
276.601364 0.0030 0.0030 0.0030 0.0040 0.0040
281.830137 0.0050 0.0050 0.0060 0.0070 0.0080
287.058909 0.0080 0.0090 0.0090 0.0100 0.0100
292.287682 0.0110 0.0110 0.0120 0.0120 0.0130
297.516455 0.0140 0.0160 0.0190 0.0200 0.0210
302.745227 0.0210 0.0220 0.0250 0.0270 0.0290
307.974000 0.0310 0.0330 0.0350 0.0360 0.0360
313.202773 0.0380 0.0390 0.0410 0.0420 0.0430
318.431546 0.0480 0.0510 0.0560 0.0580 0.0610
323.660318 0.0650 0.0680 0.0720 0.0780 0.0830
328.889091 0.0880 0.0920 0.0970 0.1020 0.1050
334.117864 0.1100 0.1160 0.1200 0.1260 0.1320
339.346637 0.1400 0.1510 0.1560 0.1600 0.1660
344.575409 0.1710 0.1780 0.1820 0.1900 0.1950
349.804182 0.2060 0.2140 0.2220 0.2300 0.2380
355.032955 0.2450 0.2520 0.2590 0.2650 0.2710
360.261728 0.2790 0.2880 0.2910 0.2980 0.3030
365.490500 0.3100 0.3180 0.3359 0.3579 0.3630
370.719273 0.3770 0.3800 0.3850 0.3920 0.4000
375.948046 0.4080 0.4130 0.4170 0.4309 0.4360
381.176818 0.4420 0.4480 0.4560 0.4640 0.4720
386.405591 0.4800 0.4880 0.4950 0.5020 0.5100
391.634364 0.5170 0.5250 0.5320 0.5390 0.5450
396.863137 0.5530 0.5600 0.5650 0.5720 0.5790
402.091909 0.5850 0.5910 0.5970 0.6040 0.6120
407.320682 0.6200 0.6250 0.6340 0.6440 0.6530
412.549455 0.6670 0.6710 0.6780 0.6820 0.6860
417.778228 0.6890 0.7000 0.7020 0.7100 0.7110
423.007000 0.7130 0.7200 0.7260 0.7310 0.7350
428.235773 0.7380 0.7500 0.7530 0.7580 0.7590
433.464546 0.7620 0.7650 0.7690 0.7720 0.7780
438.693319 0.7810 0.7860 0.7900 0.7930 0.7960
443.922091 0.8000 0.8030 0.8040 0.8070 0.8080
449.150864 0.8130 0.8180 0.8210 0.8230 0.8250
454.379637 0.8290 0.8320 0.8350 0.8390 0.8400
459.608410 0.8420 0.8440 0.8460 0.8470 0.8500
464.837182 0.8520 0.8540 0.8570 0.8580 0.8590
470.065955 0.8600 0.8620 0.8650 0.8650 0.8660
475.294728 0.8690 0.8700 0.8710 0.8720 0.8760
480.523500 0.8770 0.8780 0.8790 0.8800 0.8810
485.752273 0.8830 0.8830 0.8840 0.8840 0.8850
490.981046 0.8860 0.8890 0.8900 0.8910 0.8930
496.209819 0.8950 0.8950 0.8950 0.8960 0.8970
501.438591 0.8970 0.8980 0.8980 0.8970 0.8950
506.667364 0.8930 0.8920 0.8900 0.8830 0.8790
511.896137 0.8690 0.8680 0.8630 0.8580 0.8510
517.124910 0.8410 0.8330 0.8170 0.8000 0.7730
522.353682 0.7660 0.7610 0.7540 0.7480 0.7430
527.582455 0.7390 0.7380 0.7390 0.7470 0.7470
532.811228 0.7450 0.7271 0.6802 0.6442 0.6092
538.040001 0.7200 0.7400 0.7440 0.6381 0.5321
543.268773 0.5320 0.7804 0.7890 0.7810 0.7262
548.497546 0.6750 0.5880 0.5021 0.5020 0.7206
553.726319 0.7220 0.7230 0.7250 0.7300 0.7360
558.955091 0.7380 0.7520 0.7620 0.7780 0.7830
564.183864 0.7960 0.8100 0.8220 0.8360 0.8450
569.412637 0.8500 0.8640 0.8750 0.8880 0.8940
574.641410 0.9020 0.9050 0.9130 0.9180 0.9190
579.870182 0.9200 0.9210 0.9220 0.9220 0.9230
585.098955 0.9250 0.9270 0.9300 0.9300 0.9310
590.327728 0.9330 0.9330 0.9310 0.9310 0.9300
595.556501 0.9300 0.9290 0.9290 0.9300 0.9310
600.785273 0.9320 0.9330 0.9320 0.9320 0.9300
606.014046 0.9290 0.9290 0.9290 0.9290 0.9320
611.242819 0.9320 0.9310 0.9300 0.9300 0.9290
616.471592 0.9290 0.9290 0.9290 0.9290 0.9290
621.700364 0.9290 0.9290 0.9290 0.9300 0.9300
626.929137 0.9310 0.9310 0.9310 0.9310 0.9330
632.157910 0.9330 0.9330 0.9330 0.9330 0.9330
637.386683 0.9330 0.9330 0.9320 0.9320 0.9320
642.615455 0.9330 0.9330 0.9340 0.9340 0.9330
647.844228 0.9320 0.9310 0.9290 0.9280 0.9290
653.073001 0.9290 0.9310 0.9330 0.9340 0.9340
658.301773 0.9330 0.9340 0.9350 0.9400 0.9450
663.530546 0.9470 0.9470 0.9440 0.9400 0.9360
668.759319 0.9310 0.9310 0.9320 0.9330 0.9330
673.988092 0.9330 0.9330 0.9330 0.9330 0.9330
679.216864 0.9330 0.9330 0.9330 0.9330 0.9330
684.445637 0.9320 0.9320 0.9320 0.9320 0.9320
689.674410 0.9320 0.9340 0.9350 0.9360 0.9360
694.903183 0.9360 0.9360 0.9350 0.9350 0.9350
700.131955 0.9340 0.9320 0.9310 0.9310 0.9320
705.360728 0.9320 0.9320 0.9320 0.9330 0.9340
710.589501 0.9340 0.9340 0.9340 0.9330 0.9340
715.818274 0.9350 0.9350 0.9350 0.9350 0.9350
721.047046 0.9330 0.9330 0.9330 0.9360 0.9370
726.275819 0.9370 0.9360 0.9370 0.9370 0.9370
731.504592 0.9360 0.9330 0.9320 0.9310 0.9300
736.733364 0.9280 0.9270 0.9280 0.9300 0.9340
741.962137 0.9360 0.9360 0.9340 0.9310 0.9280
747.190910 0.9270 0.9260 0.9250 0.9260 0.9270
752.419683 0.9260 0.9270 0.9270 0.9270 0.9280
757.648455 0.9300 0.9300 0.9300 0.9300 0.9290
762.877228 0.9290 0.9290 0.9290 0.9300 0.9300
768.106001 0.9310 0.9310 0.9320 0.9320 0.9330
773.334774 0.9330 0.9330 0.9330 0.9330 0.9320
778.563546 0.9320 0.9320 0.9290 0.9280 0.9280
783.792319 0.9290 0.9310 0.9320 0.9330 0.9360
789.021092 0.9370 0.9330 0.9320 0.9320 0.9330
794.249865 0.9330 0.9330 0.9320 0.9310 0.9300
799.478637 0.9330 0.9350 0.9360 0.9360 0.9350
804.707410 0.9330 0.9320 0.9310 0.9300 0.9300
809.936183 0.9290 0.9270 0.9230 0.9190 0.9180
815.164956 0.9120 0.9040 0.8900 0.8790 0.8700
820.393728 0.8530 0.8400 0.8150 0.8040 0.7890
825.622501 0.7700 0.7560 0.7410 0.7300 0.7061
830.851274 0.6920 0.6760 0.6700 0.6640 0.6560
836.080046 0.6550 0.6530 0.6520 0.6510 0.6480
841.308819 0.6420 0.6329 0.5860 0.5590 0.5010
846.537592 0.4391 0.3392 0.2382 0.2380 0.7203
851.766365 0.7229 0.6790 0.6340 0.5141 0.4591
856.995137 0.4191 0.3970 0.3790 0.3700 0.3670
862.223910 0.3660 0.3650 0.3640 0.3620 0.3600
867.452683 0.3580 0.3520 0.3500 0.3500 0.3580
872.681456 0.3660 0.3700 0.3920 0.4070 0.4190
877.910228 0.4200 0.4200 0.3981 0.3452 0.3141
883.139001 0.2818 0.1999 0.1600 0.1600 0.2160
888.367774 0.4218 0.6317 0.6330 0.5472 0.4822
893.596547 0.4270 0.4090 0.4080 0.4090 0.4190
898.825319 0.4400 0.4630 0.4690 0.4859 0.5408
904.054092 0.5900 0.6111 0.6870 0.7300 0.7730
909.282865 0.8090 0.8380 0.8610 0.8800 0.8930
914.511637 0.9030 0.9090 0.9140 0.9160 0.9180
919.740410 0.9190 0.9220 0.9230 0.9260 0.9230
924.969183 0.9220 0.9220 0.9220 0.9210 0.9200
930.197956 0.9200 0.9200 0.9210 0.9210 0.9210
935.426728 0.9220 0.9220 0.9230 0.9250 0.9270
940.655501 0.9270 0.9250 0.9230 0.9220 0.9210
945.884274 0.9210 0.9220 0.9230 0.9250 0.9270
951.113047 0.9310 0.9310 0.9280 0.9220 0.9210
956.341819 0.9220 0.9220 0.9200 0.9170 0.9140
961.570592 0.9140 0.9170 0.9190 0.9200 0.9200
966.799365 0.9210 0.9220 0.9200 0.9160 0.9160
972.028138 0.9210 0.9220 0.9230 0.9220 0.9180
977.256910 0.9170 0.9180 0.9200 0.9220 0.9280
982.485683 0.9320 0.9320 0.9310 0.9260 0.9220
987.714456 0.9190 0.9120 0.9110 0.9120 0.9160
992.943229 0.9160 0.9160 0.9180 0.9190 0.9200
998.172001 0.9200 0.9220 0.9270 0.9310 0.9350
1003.400774 0.9370 0.9370 0.9330 0.9300 0.9270
1008.629547 0.9260 0.9250 0.9220 0.9210 0.9210
1013.858319 0.9220 0.9230 0.9270 0.9300 0.9300
1019.087092 0.9310 0.9320 0.9320 0.9310 0.9300
1024.315865 0.9300 0.9290 0.9280 0.9260 0.9250
1029.544638 0.9230 0.9260 0.9260 0.9280 0.9300
1034.773410 0.9310 0.9300 0.9250 0.9270 0.9300
1040.002183 0.9310 0.9320 0.9320 0.9300 0.9300
1045.230956 0.9300 0.9310 0.9310 0.9310 0.9310
1050.459729 0.9300 0.9290 0.9260 0.9230 0.9210
1055.688501 0.9210 0.9220 0.9220 0.9260 0.9260
1060.917274 0.9270 0.9270 0.9250 0.9230 0.9220
1066.146047 0.9210 0.9200 0.9210 0.9220 0.9220
1071.374820 0.9230 0.9250 0.9230 0.9220 0.9210
1076.603592 0.9220 0.9250 0.9260 0.9270 0.9280
1081.832365 0.9280 0.9270 0.9260 0.9250 0.9230
1087.061138 0.9220 0.9220 0.9210 0.9220 0.9260
1092.289911 0.9280 0.9310 0.9310 0.9300 0.9300
1097.518683 0.9300 0.9310 0.9310 0.9290 0.9290
1102.747456 0.9350 0.9420 0.9420 0.9410 0.9350
1107.976229 0.9330 0.9330 0.9340 0.9330 0.9320
1113.205001 0.9290 0.9290 0.9300 0.9310 0.9320
1118.433774 0.9320 0.9320 0.9310 0.9310 0.9300
1123.662547 0.9300 0.9270 0.9260 0.9230 0.9220
1128.891320 0.9210 0.9220 0.9260 0.9270 0.9280
1134.120092 0.9290 0.9290 0.9290 0.9280 0.9270
1139.348865 0.9250 0.9250 0.9230 0.9220 0.9230
1144.577638 0.9250 0.9260 0.9270 0.9300 0.9300
1149.806411 0.9310 0.9320 0.9330 0.9340 0.9340
1155.035183 0.9350 0.9350 0.9350 0.9350 0.9350
1160.263956 0.9350 0.9330 0.9330 0.9310 0.9310
1165.492729 0.9320 0.9330 0.9340 0.9350 0.9360
1170.721502 0.9350 0.9340 0.9340 0.9330 0.9310
1175.950274 0.9300 0.9280 0.9280 0.9290 0.9290
1181.179047 0.9290 0.9300 0.9300 0.9310 0.9310
1186.407820 0.9310 0.9320 0.9320 0.9320 0.9330
1191.636592 0.9330 0.9340 0.9340 0.9350 0.9350
1196.865365 0.9350 0.9340 0.9330 0.9330 0.9330
1202.094138 0.9330 0.9330 0.9330 0.9330 0.9330
1207.322911 0.9330 0.9340 0.9340 0.9350 0.9360
1212.551683 0.9380 0.9380 0.9360 0.9350 0.9340
1217.780456 0.9330 0.9310 0.9300 0.9310 0.9340
1223.009229 0.9350 0.9350 0.9340 0.9310 0.9230
1228.238002 0.9200 0.9180 0.9130 0.9090 0.9060
1233.466774 0.9040 0.9030 0.9030 0.9000 0.8830
1238.695547 0.8700 0.8610 0.8400 0.8160 0.7910
1243.924320 0.7670 0.7420 0.7190 0.6951 0.6731
1249.153093 0.6630 0.6519 0.6299 0.5910 0.5600
1254.381865 0.5310 0.5170 0.5060 0.5040 0.5060
1259.610638 0.5191 0.5440 0.5690 0.5940 0.6070
1264.839411 0.6060 0.5760 0.5101 0.3214 0.1325
1270.068184 0.1327 0.3580 0.7450 0.7449 0.7060
1275.296956 0.6650 0.5660 0.5310 0.5010 0.4920
1280.525729 0.4920 0.4970 0.5140 0.5430 0.5550
1285.754502 0.5790 0.6060 0.6759 0.7079 0.7289
1290.983274 0.7981 0.8311 0.8600 0.8760 0.8880
1296.212047 0.9040 0.9140 0.9220 0.9290 0.9330
1301.440820 0.9350 0.9360 0.9370 0.9330 0.9380
1306.669593 0.9400 0.9420 0.9430 0.9430 0.9440
1311.898365 0.9410 0.9410 0.9420 0.9480 0.9530
1317.127138 0.9540 0.9520 0.9460 0.9400 0.9320
1322.355911 0.9320 0.9330 0.9330 0.9350 0.9360
1327.584684 0.9360 0.9360 0.9360 0.9370 0.9370
1332.813456 0.9370 0.9360 0.9330 0.9320 0.9330
1338.042229 0.9350 0.9350 0.9350 0.9340 0.9290
1343.271002 0.9290 0.9300 0.9320 0.9330 0.9350
1348.499775 0.9360 0.9370 0.9370 0.9370 0.9360
1353.728547 0.9360 0.9360 0.9360 0.9370 0.9400
1358.957320 0.9410 0.9410 0.9410 0.9390 0.9320
1364.186093 0.9320 0.9320 0.9340 0.9340 0.9340
1369.414865 0.9350 0.9360 0.9360 0.9320 0.9280
1374.643638 0.9260 0.9230 0.9230 0.9220 0.9200
1379.872411 0.9190 0.9180 0.9200 0.9270 0.9270
1385.101184 0.9200 0.9200 0.9190 0.9190 0.9260
1390.329956 0.9270 0.9270 0.9270 0.9260 0.9260
1395.558729 0.9250 0.9250 0.9250 0.9250 0.9260
1400.787502 0.9290 0.9310 0.9340 0.9390 0.9400
1406.016275 0.9390 0.9340 0.9300 0.9290 0.9290
1411.245047 0.9320 0.9330 0.9330 0.9330 0.9330
1416.473820 0.9340 0.9350 0.9390 0.9400 0.9410
1421.702593 0.9360 0.9310 0.9310 0.9320 0.9330
1426.931366 0.9360 0.9380 0.9370 0.9370 0.9370
1432.160138 0.9390 0.9390 0.9360 0.9360 0.9390
1437.388911 0.9390 0.9360 0.9330 0.9330 0.9360
1442.617684 0.9360 0.9350 0.9340 0.9340 0.9340
1447.846457 0.9330 0.9330 0.9320 0.9320 0.9320
1453.075229 0.9370 0.9390 0.9390 0.9360 0.9320
1458.304002 0.9230 0.9160 0.9140 0.9060 0.9030
1463.532775 0.8930 0.8880 0.8810 0.8750 0.8690
1468.761547 0.8630 0.8600 0.8479 0.8209 0.7810
1473.990320 0.7650 0.7420 0.7050 0.6810 0.6570
1479.219093 0.6008 0.5409 0.4810 0.4680 0.4610
1484.447866 0.4170 0.3830 0.3750 0.3660 0.3600
1489.676638 0.3600 0.3700 0.3751 0.3971 0.4400
1494.905411 0.4420 0.4410 0.4150 0.3720 0.3291
1500.134184 0.2295 0.0670 0.0682 0.7080 0.7080
1505.362957 0.6420 0.5760 0.5051 0.4321 0.3761
1510.591729 0.3480 0.3480 0.3610 0.3730 0.3810
1515.820502 0.3950 0.4180 0.4380 0.4670 0.4960
1521.049275 0.5481 0.5833 0.7191 0.7471 0.7960
1526.278048 0.8460 0.8660 0.8860 0.9020 0.9100
1531.506820 0.9260 0.9300 0.9360 0.9380 0.9450
1536.735593 0.9510 0.9510 0.9500 0.9450 0.9420
1541.964366 0.9380 0.9340 0.9300 0.9300 0.9300
1547.193138 0.9310 0.9320 0.9330 0.9340 0.9380
1552.421911 0.9400 0.9440 0.9500 0.9530 0.9560
1557.650684 0.9560 0.9510 0.9350 0.9300 0.9280
1562.879457 0.9280 0.9300 0.9310 0.9320 0.9330
1568.108229 0.9340 0.9350 0.9350 0.9350 0.9390
1573.337002 0.9390 0.9360 0.9330 0.9290 0.9260
1578.565775 0.9250 0.9250 0.9250 0.9260 0.9270
1583.794548 0.9270 0.9260 0.9250 0.9250 0.9250
1589.023320 0.9250 0.9250 0.9250 0.9260 0.9260
1594.252093 0.9260 0.9260 0.9250 0.9250 0.9270
1599.480866 0.9270 0.9280 0.9280 0.9300 0.9300
1604.709639 0.9290 0.9280 0.9280 0.9270 0.9270
1609.938411 0.9280 0.9290 0.9300 0.9310 0.9320
1615.167184 0.9320 0.9310 0.9290 0.9290 0.9280
1620.395957 0.9290 0.9300 0.9300 0.9300 0.9300
1625.624730 0.9290 0.9290 0.9290 0.9300 0.9310
1630.853502 0.9330 0.9360 0.9370 0.9400 0.9400
1636.082275 0.9360 0.9290 0.9270 0.9270 0.9280
1641.311048 0.9300 0.9320 0.9370 0.9390 0.9390
1646.539820 0.9380 0.9390 0.9400 0.9420 0.9520
1651.768593 0.9570 0.9550 0.9400 0.9270 0.9260
1656.997366 0.9270 0.9280 0.9280 0.9290 0.9300
1662.226139 0.9310 0.9310 0.9300 0.9310 0.9320
1667.454911 0.9330 0.9330 0.9320 0.9310 0.9300
1672.683684 0.9290 0.9270 0.9270 0.9260 0.9270
1677.912457 0.9280 0.9300 0.9310 0.9330 0.9360
1683.141230 0.9350 0.9300 0.9270 0.9220 0.9210
1688.370002 0.9220 0.9230 0.9250 0.9260 0.9300
1693.598775 0.9340 0.9330 0.9320 0.9310 0.9290
1698.827548 0.9260 0.9230 0.9220 0.9230 0.9270
1704.056321 0.9270 0.9260 0.9260 0.9260 0.9250
1709.285093 0.9260 0.9260 0.9290 0.9300 0.9310
1714.513866 0.9310 0.9300 0.9300 0.9230 0.9200
1719.742639 0.9190 0.9190 0.9180 0.9180 0.9190
1724.971411 0.9190 0.9200 0.9220 0.9230 0.9280
1730.200184 0.9290 0.9300 0.9280 0.9270 0.9260
1735.428957 0.9250 0.9230 0.9230 0.9220 0.9220
1740.657730 0.9220 0.9230 0.9250 0.9260 0.9260
1745.886502 0.9270 0.9290 0.9290 0.9300 0.9290
1751.115275 0.9280 0.9260 0.9260 0.9270 0.9280
1756.344048 0.9290 0.9290 0.9300 0.9300 0.9290
1761.572821 0.9270 0.9250 0.9260 0.9280 0.9280
1766.801593 0.9290 0.9300 0.9300 0.9320 0.9330
1772.030366 0.9300 0.9270 0.9230 0.9220 0.9220
1777.259139 0.9220 0.9230 0.9230 0.9230 0.9230
1782.487912 0.9260 0.9260 0.9270 0.9270 0.9290
1787.716684 0.9300 0.9310 0.9340 0.9340 0.9320
1792.945457 0.9310 0.9300 0.9290 0.9290 0.9280
1798.174230 0.9270 0.9270 0.9260 0.9260 0.9260
1803.403003 0.9260 0.9290 0.9290 0.9290 0.9290
1808.631775 0.9280 0.9280 0.9270 0.9280 0.9270
1813.860548 0.9270 0.9260 0.9260 0.9260 0.9260
1819.089321 0.9260 0.9250 0.9250 0.9260 0.9270
1824.318093 0.9270 0.9270 0.9280 0.9290 0.9290
1829.546866 0.9290 0.9290 0.9300 0.9300 0.9290
1834.775639 0.9290 0.9290 0.9290 0.9290 0.9280
1840.004412 0.9290 0.9290 0.9270 0.9260 0.9250
1845.233184 0.9230 0.9250 0.9250 0.9260 0.9260
1850.461957 0.9260 0.9270 0.9280 0.9290 0.9290
1855.690730 0.9290 0.9290 0.9290 0.9280 0.9270
1860.919503 0.9260 0.9260 0.9270 0.9270 0.9270
1866.148275 0.9280 0.9280 0.9280 0.9270 0.9270
1871.377048 0.9270 0.9260 0.9250 0.9250 0.9260
1876.605821 0.9260 0.9280 0.9290 0.9290 0.9290
1881.834594 0.9290 0.9290 0.9290 0.9290 0.9280
1887.063366 0.9270 0.9250 0.9210 0.9210 0.9230
1892.292139 0.9250 0.9260 0.9270 0.9260 0.9260
1897.520912 0.9260 0.9250 0.9250 0.9260 0.9260
1902.749685 0.9270 0.9280 0.9290 0.9290 0.9290
1907.978457 0.9290 0.9260 0.9250 0.9250 0.9250
1913.207230 0.9260 0.9260 0.9270 0.9280 0.9270
1918.436003 0.9270 0.9270 0.9270 0.9260 0.9260
1923.664775 0.9260 0.9270 0.9270 0.9270 0.9270
1928.893548 0.9260 0.9250 0.9230 0.9210 0.9220
1934.122321 0.9230 0.9250 0.9250 0.9250 0.9250
1939.351094 0.9260 0.9260 0.9250 0.9270 0.9270
1944.579866 0.9260 0.9250 0.9230 0.9230 0.9250
1949.808639 0.9250 0.9260 0.9270 0.9290 0.9290
1955.037412 0.9270 0.9260 0.9260 0.9260 0.9260
1960.266185 0.9250 0.9260 0.9260 0.9260 0.9250
1965.494957 0.9250 0.9250 0.9250 0.9250 0.9250
1970.723730 0.9250 0.9230 0.9260 0.9260 0.9250
1975.952503 0.9250 0.9250 0.9250 0.9230 0.9250
1981.181276 0.9230 0.9230 0.9220 0.9220 0.9210
1986.410048 0.9210 0.9210 0.9220 0.9220 0.9220
1991.638821 0.9230 0.9250 0.9250 0.9250 0.9250
1996.867594 0.9250 0.9250 0.9250 0.9230 0.9230
2002.096366 0.9230 0.9230 0.9230 0.9220 0.9210
2007.325139 0.9200 0.9190 0.9190 0.9190 0.9190
2012.553912 0.9190 0.9195 0.9200 0.9215 0.9230
2017.782685 0.9230 0.9230 0.9230 0.9230 0.9230
2023.011457 0.9231 0.9261 0.9290 0.9290 0.9290
2028.240230 0.9280 0.9270 0.9265 0.9259 0.9239
2033.469003 0.9220 0.9210 0.9200 0.9195 0.9190
2038.697776 0.9190 0.9190 0.9185 0.9180 0.9175
2043.926548 0.9170 0.9175 0.9180 0.9180 0.9180
2049.155321 0.9180 0.9180 0.9191 0.9200 0.9205
2054.384094 0.9210 0.9210 0.9210 0.9215 0.9220
2059.612867 0.9220 0.9220 0.9220 0.9219 0.9199
2064.841639 0.9180 0.9180 0.9180 0.9185 0.9191
2070.070412 0.9201 0.9210 0.9215 0.9220 0.9220
2075.299185 0.9219 0.9209 0.9200 0.9200 0.9200
2080.527958 0.9200 0.9200 0.9195 0.9190 0.9185
2085.756730 0.9180 0.9180 0.9181 0.9191 0.9201
2090.985503 0.9211 0.9220 0.9220 0.9220 0.9225
2096.214276 0.9230 0.9225 0.9220 0.9215 0.9209
2101.443048 0.9199 0.9190 0.9184 0.9180 0.9180
2106.671821 0.9181 0.9186 0.9190 0.9190 0.9191
2111.900594 0.9196 0.9200 0.9200 0.9200 0.9200
2117.129367 0.9200 0.9200 0.9200 0.9200 0.9199
2122.358139 0.9194 0.9190 0.9190 0.9189 0.9179
2127.586912 0.9170 0.9170 0.9171 0.9181 0.9191
2132.815685 0.9201 0.9211 0.9216 0.9219 0.9209
2138.044458 0.9200 0.9200 0.9199 0.9194 0.9190
2143.273230 0.9190 0.9191 0.9196 0.9202 0.9212
2148.502003 0.9220 0.9220 0.9221 0.9226 0.9230
2153.730776 0.9230 0.9230 0.9230 0.9232 0.9242
2158.959549 0.9250 0.9250 0.9246 0.9221 0.9199
2164.188321 0.9194 0.9193 0.9208 0.9220 0.9220
2169.417094 0.9219 0.9214 0.9209 0.9204 0.9199
2174.645867 0.9194 0.9190 0.9190 0.9190 0.9190
2179.874639 0.9189 0.9184 0.9180 0.9180 0.9180
2185.103412 0.9180 0.9181 0.9186 0.9192 0.9202
2190.332185 0.9211 0.9216 0.9221 0.9226 0.9229
2195.560958 0.9224 0.9219 0.9214 0.9210 0.9210
2200.789730 0.9210 0.9210 0.9208 0.9198 0.9189
2206.018503 0.9184 0.9180 0.9180 0.9181 0.9186
2211.247276 0.9190 0.9190 0.9190 0.9190 0.9190
2216.476049 0.9190 0.9190 0.9190 0.9191 0.9196
2221.704821 0.9200 0.9200 0.9202 0.9212 0.9220
2226.933594 0.9220 0.9215 0.9195 0.9179 0.9174
2232.162367 0.9174 0.9189 0.9200 0.9200 0.9200
2237.391140 0.9200 0.9200 0.9200 0.9200 0.9200
2242.619912 0.9201 0.9206 0.9211 0.9216 0.9220
2247.848685 0.9220 0.9215 0.9195 0.9179 0.9174
2253.077458 0.9169 0.9164 0.9163 0.9173 0.9184
2258.306231 0.9199 0.9211 0.9216 0.9220 0.9220
2263.535003 0.9220 0.9220 0.9219 0.9214 0.9210
2268.763776 0.9210 0.9210 0.9210 0.9209 0.9204
2273.992549 0.9199 0.9194 0.9189 0.9184 0.9179
2279.221321 0.9174 0.9170 0.9170 0.9170 0.9170
2284.450094 0.9172 0.9176 0.9183 0.9193 0.9200
2289.678867 0.9200 0.9202 0.9207 0.9210 0.9210
2294.907640 0.9212 0.9217 0.9220 0.9220 0.9222
2300.136412 0.9227 0.9233 0.9243 0.9252 0.9257
2305.365185 0.9260 0.9260 0.9262 0.9267 0.9272
2310.593958 0.9277 0.9280 0.9280 0.9282 0.9287
2315.822731 0.9290 0.9290 0.9288 0.9283 0.9282
2321.051503 0.9287 0.9295 0.9310 0.9327 0.9347
2326.280276 0.9358 0.9353 0.9348 0.9343 0.9337
2331.509049 0.9327 0.9308 0.9272 0.9244 0.9229
2336.737822 0.9237 0.9282 0.9310 0.9310 0.9325
2341.966594 0.9365 0.9390 0.9390 0.9370 0.9315
2347.195367 0.9278 0.9273 0.9270 0.9270 0.9276
2352.424140 0.9291 0.9315 0.9355 0.9388 0.9408
2357.652912 0.9424 0.9434 0.9448 0.9468 0.9484
2362.881685 0.9494 0.9500 0.9500 0.9496 0.9486
2368.110458 0.9464 0.9424 0.9390 0.9365 0.9332
2373.339231 0.9287 0.9236 0.9176 0.9136 0.9126
2378.568003 0.9124 0.9134 0.9144 0.9154 0.9162
2383.796776 0.9167 0.9170 0.9170 0.9172 0.9177
2389.025549 0.9180 0.9180 0.9178 0.9173 0.9172
2394.254322 0.9177 0.9180 0.9180 0.9182 0.9187
2399.483094 0.9186 0.9176 0.9168 0.9163 0.9158
2404.711867 0.9153 0.9152 0.9157 0.9160 0.9160
2409.940640 0.9162 0.9167 0.9172 0.9177 0.9180
2415.169413 0.9180 0.9180 0.9180 0.9180 0.9180
2420.398185 0.9178 0.9173 0.9168 0.9163 0.9160
2425.626958 0.9160 0.9158 0.9153 0.9150 0.9150
2430.855731 0.9150 0.9150 0.9150 0.9150 0.9152
2436.084504 0.9157 0.9162 0.9167 0.9172 0.9177
2441.313276 0.9180 0.9180 0.9182 0.9187 0.9190
2446.542049 0.9190 0.9188 0.9183 0.9178 0.9173
2451.770822 0.9170 0.9170 0.9172 0.9177 0.9182
2456.999594 0.9187 0.9190 0.9190 0.9190 0.9190
2462.228367 0.9187 0.9182 0.9180 0.9180 0.9177
2467.457140 0.9172 0.9170 0.9170 0.9173 0.9178
2472.685913 0.9180 0.9180 0.9180 0.9180 0.9180
2477.914685 0.9180 0.9180 0.9180 0.9180 0.9180
2483.143458 0.9180 0.9180 0.9180 0.9180 0.9180
2488.372231 0.9180 0.9180 0.9180 0.9180 0.9180
2493.601004 0.9180 0.9180 0.9180 0.9180 0.9180
2498.829776 0.9180 0.9180 0.9180 0.9180 0.9180
2504.058549 0.9177 0.9172 0.9170 0.9170 0.9167
2509.287322 0.9162 0.9160 0.9160 0.9160 0.9160
2514.516095 0.9157 0.9152 0.9147 0.9142 0.9140
2519.744867 0.9140 0.9140 0.9140 0.9140 0.9140
2524.973640 0.9140 0.9140 0.9137 0.9132 0.9130
2530.202413 0.9130 0.9130 0.9130 0.9130 0.9130
2535.431185 0.9133 0.9138 0.9143 0.9148 0.9150
2540.659958 0.9150 0.9153 0.9158 0.9166 0.9176
2545.888731 0.9180 0.9180 0.9180 0.9180 0.9183
2551.117504 0.9188 0.9190 0.9190 0.9190 0.9190
2556.346276 0.9190 0.9190 0.9190 0.9190 0.9190
2561.575049 0.9190 0.9187 0.9182 0.9180 0.9180
2566.803822 0.9180 0.9180 0.9177 0.9172 0.9167
2572.032595 0.9162 0.9157 0.9152 0.9150 0.9150
2577.261367 0.9147 0.9142 0.9143 0.9148 0.9150
2582.490140 0.9150 0.9153 0.9158 0.9160 0.9160
2587.718913 0.9163 0.9168 0.9173 0.9178 0.9180
2592.947686 0.9180 0.9180 0.9180 0.9180 0.9180
2598.176458 0.9180 0.9180 0.9180 0.9180 0.9174
2603.405231 0.9164 0.9160 0.9160 0.9167 0.9177
2608.634004 0.9180 0.9180 0.9183 0.9188 0.9190
2613.862777 0.9190 0.9183 0.9173 0.9167 0.9162
2619.091549 0.9157 0.9152 0.9163 0.9183 0.9190
2624.320322 0.9190 0.9180 0.9165 0.9160 0.9160
2629.549095 0.9160 0.9160 0.9160 0.9160 0.9160
2634.777867 0.9160 0.9160 0.9160 0.9163 0.9168
2640.006640 0.9170 0.9170 0.9170 0.9170 0.9167
2645.235413 0.9162 0.9160 0.9160 0.9156 0.9151
2650.464186 0.9150 0.9150 0.9146 0.9141 0.9136
2655.692958 0.9131 0.9126 0.9121 0.9120 0.9120
2660.921731 0.9124 0.9129 0.9137 0.9147 0.9154
2666.150504 0.9159 0.9160 0.9160 0.9160 0.9160
2671.379277 0.9156 0.9151 0.9154 0.9159 0.9160
2676.608049 0.9160 0.9164 0.9169 0.9174 0.9179
2681.836822 0.9180 0.9180 0.9180 0.9180 0.9180
2687.065595 0.9180 0.9173 0.9162 0.9152 0.9142
2692.294368 0.9136 0.9131 0.9126 0.9121 0.9124
2697.523140 0.9129 0.9134 0.9139 0.9144 0.9149
2702.751913 0.9158 0.9168 0.9166 0.9161 0.9156
2707.980686 0.9151 0.9142 0.9132 0.9130 0.9130
2713.209459 0.9126 0.9121 0.9120 0.9120 0.9120
2718.438231 0.9120 0.9116 0.9111 0.9110 0.9110
2723.667004 0.9110 0.9110 0.9110 0.9110 0.9110
2728.895777 0.9110 0.9110 0.9110 0.9110 0.9110
2734.124549 0.9106 0.9101 0.9100 0.9100 0.9096
2739.353322 0.9091 0.9086 0.9081 0.9052 0.9017
2744.582095 0.9010 0.9010 0.9034 0.9064 0.9074
2749.810868 0.9079 0.9080 0.9080 0.9080 0.9080
2755.039640 0.9072 0.9062 0.9048 0.9033 0.9022
2760.268413 0.9012 0.9014 0.9019 0.9032 0.9047
2765.497186 0.9058 0.9068 0.9078 0.9088 0.9086
2770.725959 0.9081 0.9080 0.9080 0.9076 0.9071
2775.954731 0.9070 0.9070 0.9078 0.9088 0.9098
2781.183504 0.9108 0.9110 0.9110 0.9114 0.9119
2786.412277 0.9124 0.9129 0.9134 0.9139 0.9140
2791.641050 0.9140 0.9144 0.9149 0.9154 0.9159
2796.869822 0.9160 0.9160 0.9164 0.9169 0.9170
2802.098595 0.9170 0.9170 0.9170 0.9166 0.9161
2807.327368 0.9156 0.9151 0.9150 0.9150 0.9146
2812.556140 0.9141 0.9140 0.9140 0.9136 0.9131
2817.784913 0.9126 0.9121 0.9120 0.9120 0.9133
2823.013686 0.9148 0.9154 0.9159 0.9160 0.9160
2828.242459 0.9160 0.9160 0.9156 0.9151 0.9146
2833.471231 0.9141 0.9135 0.9130 0.9130 0.9130
2838.700004 0.9125 0.9120 0.9115 0.9110 0.9110
2843.928777 0.9110 0.9105 0.9100 0.9100 0.9100
2849.157550 0.9095 0.9090 0.9090 0.9090 0.9090
2854.386322 0.9090 0.9090 0.9090 0.9095 0.9100
2859.615095 0.9100 0.9100 0.9100 0.9100 0.9100
2864.843868 0.9100 0.9100 0.9100 0.9100 0.9100
2870.072641 0.9100 0.9100 0.9105 0.9110 0.9110
2875.301413 0.9110 0.9110 0.9110 0.9110 0.9110
2880.530186 0.9115 0.9120 0.9120 0.9120 0.9120
2885.758959 0.9120 0.9120 0.9120 0.9120 0.9120
2890.987732 0.9120 0.9120 0.9120 0.9120 0.9115
2896.216504 0.9110 0.9110 0.9110 0.9110 0.9110
2901.445277 0.9105 0.9100 0.9095 0.9090 0.9090
2906.674050 0.9090 0.9090 0.9090 0.9085 0.9080
2911.902822 0.9085 0.9090 0.9085 0.9080 0.9080
2917.131595 0.9080 0.9080 0.9080 0.9075 0.9070
2922.360368 0.9070 0.9070 0.9070 0.9070 0.9075
2927.589141 0.9080 0.9080 0.9080 0.9085 0.9090
2932.817913 0.9090 0.9090 0.9090 0.9090 0.9095
2938.046686 0.9100 0.9100 0.9100 0.9100 0.9100
2943.275459 0.9100 0.9100 0.9095 0.9090 0.9090
2948.504232 0.9090 0.9085 0.9080 0.9080 0.9080
2953.733004 0.9080 0.9080 0.9080 0.9080 0.9085
2958.961777 0.9090 0.9095 0.9100 0.9105 0.9110
2964.190550 0.9110 0.9110 0.9110 0.9110 0.9105
2969.419323 0.9100 0.9095 0.9090 0.9090 0.9090
2974.648095 0.9085 0.9080 0.9080 0.9080 0.9075
2979.876868 0.9070 0.9075 0.9080 0.9080 0.9080
2985.105641 0.9080 0.9080 0.9085 0.9090 0.9090
2990.334413 0.9090 0.9090 0.9090 0.9090 0.9090
2995.563186 0.9090 0.9090 0.9095 0.9100 0.9100
3000.791959 0.9100 0.9105 0.9110 0.9110 0.9110
3006.020732 0.9110 0.9110 0.9110 0.9110 0.9105
3011.249504 0.9100 0.9100 0.9100 0.9095 0.9090
3016.478277 0.9085 0.9080 0.9080 0.9080 0.9080
3021.707050 0.9080 0.9080 0.9081 0.9086 0.9090
3026.935823 0.9090 0.9090 0.9090 0.9090 0.9090
3032.164595 0.9090 0.9090 0.9091 0.9096 0.9100
3037.393368 0.9100 0.9100 0.9100 0.9099 0.9089
3042.622141 0.9079 0.9074 0.9070 0.9070 0.9071
3047.850914 0.9076 0.9080 0.9080 0.9081 0.9086
3053.079686 0.9090 0.9090 0.9091 0.9096 0.9101
3058.308459 0.9106 0.9110 0.9110 0.9110 0.9110
3063.537232 0.9109 0.9104 0.9099 0.9094 0.9090
3068.766005 0.9090 0.9090 0.9090 0.9090 0.9090
3073.994777 0.9090 0.9090 0.9090 0.9090 0.9090
3079.223550 0.9090 0.9090 0.9090 0.9090 0.9090
3084.452323 0.9090 0.9090 0.9090 0.9090 0.9089
3089.681095 0.9084 0.9080 0.9080 0.9078 0.9068
3094.909868 0.9060 0.9060 0.9061 0.9066 0.9072
3100.138641 0.9082 0.9092 0.9102 0.9110 0.9110
3105.367414 0.9110 0.9110 0.9110 0.9110 0.9110
3110.596186 0.9110 0.9109 0.9104 0.9100 0.9100
3115.824959 0.9100 0.9100 0.9100 0.9100 0.9100
3121.053732 0.9100 0.9100 0.9100 0.9100 0.9100
3126.282505 0.9099 0.9094 0.9090 0.9090 0.9090
3131.511277 0.9090 0.9089 0.9084 0.9080 0.9080
3136.740050 0.9079 0.9074 0.9069 0.9064 0.9059
3141.968823 0.9054 0.9050 0.9050 0.9050 0.9050
3147.197596 0.9049 0.9044 0.9040 0.9040 0.9040
3152.426368 0.9040 0.9040 0.9040 0.9041 0.9046
3157.655141 0.9050 0.9050 0.9050 0.9050 0.9051
3162.883914 0.9056 0.9060 0.9060 0.9060 0.9060
3168.112686 0.9060 0.9060 0.9061 0.9066 0.9070
3173.341459 0.9070 0.9071 0.9076 0.9080 0.9080
3178.570232 0.9077 0.9067 0.9057 0.9047 0.9040
3183.799005 0.9040 0.9039 0.9034 0.9030 0.9030
3189.027777 0.9030 0.9030 0.9031 0.9036 0.9040
3194.256550 0.9040 0.9040 0.9040 0.9040 0.9040
3199.485323 0.9040 0.9040 0.9040 0.9040 0.9040
3204.714096 0.9040 0.9040 0.9040 0.9040 0.9040
3209.942868 0.9038 0.9033 0.9030 0.9030 0.9030
3215.171641 0.9030 0.9028 0.9023 0.9020 0.9020
3220.400414 0.9020 0.9020 0.9020 0.9020 0.9020
3225.629187 0.9020 0.9020 0.9020 0.9020 0.9020
3230.857959 0.9020 0.9020 0.9022 0.9027 0.9030
3236.086732 0.9030 0.9030 0.9030 0.9030 0.9030
3241.315505 0.9028 0.9023 0.9017 0.9007 0.9000
3246.544278 0.9000 0.9000 0.9000 0.9002 0.9007
3251.773050 0.9010 0.9010 0.9012 0.9017 0.9022
3257.001823 0.9027 0.9032 0.9037 0.9040 0.9040
3262.230596 0.9040 0.9040 0.9038 0.9033 0.9030
3267.459368 0.9030 0.9030 0.9030 0.9028 0.9023
3272.688141 0.9020 0.9020 0.9018 0.9013 0.9010
3277.916914 0.9010 0.9008 0.9003 0.8996 0.8986
3283.145687 0.8984 0.8994 0.9000 0.9000 0.9002
3288.374459 0.9007 0.9012 0.9017 0.9020 0.9020
3293.603232 0.9018 0.9013 0.9012 0.9017 0.9022
3298.832005 0.9027 0.9030 0.9030 0.9030 0.9030
3304.060778 0.9028 0.9023 0.9020 0.9020 0.9018
3309.289550 0.9013 0.9010 0.9010 0.9010 0.9010
3314.518323 0.9008 0.9003 0.8996 0.8986 0.8980
3319.747096 0.8980 0.8978 0.8973 0.8972 0.8977
3324.975869 0.8984 0.8994 0.9000 0.9000 0.9002
3330.204641 0.9007 0.9010 0.9010 0.9012 0.9017
3335.433414 0.9022 0.9027 0.9030 0.9030 0.9030
3340.662187 0.9030 0.9025 0.9015 0.9010 0.9010
3345.890959 0.9008 0.9003 0.8995 0.8985 0.8978
3351.119732 0.8973 0.8970 0.8970 0.8970 0.8970
3356.348505 0.8970 0.8970 0.8972 0.8977 0.8987
3361.577278 0.9002 0.9010 0.9010 0.9010 0.9010
3366.806050 0.9010 0.9010 0.9008 0.9003 0.9002
3372.034823 0.9007 0.9012 0.9017 0.9020 0.9020
3377.263596 0.9020 0.9020 0.9023 0.9028 0.9027
3382.492369 0.9022 0.9017 0.9012 0.9010 0.9010
3387.721141 0.9007 0.9002 0.8992 0.8977 0.8967
3392.949914 0.8962 0.8957 0.8952 0.8953 0.8958
3398.178687 0.8965 0.8975 0.8993 0.9018 0.9030
3403.407460 0.9030 0.9027 0.9022 0.9017 0.9012
3408.636232 0.9010 0.9010 0.9010 0.9010 0.9007
3413.865005 0.9002 0.9000 0.9000 0.9000 0.9000
3419.093778 0.9000 0.9000 0.9003 0.9008 0.9013
3424.322551 0.9018 0.9017 0.9012 0.9010 0.9010
3429.551323 0.9010 0.9010 0.9010 0.9010 0.9010
3434.780096 0.9010 0.9010 0.9010 0.9010 0.9010
3440.008869 0.9016 0.9026 0.9033 0.9038 0.9040
3445.237641 0.9040 0.9037 0.9032 0.9030 0.9030
3450.466414 0.9027 0.9022 0.9020 0.9020 0.9020
3455.695187 0.9020 0.9023 0.9028 0.9030 0.9030
3460.923960 0.9027 0.9022 0.9023 0.9028 0.9030
3466.152732 0.9030 0.9030 0.9030 0.9030 0.9030
3471.381505 0.9030 0.9030 0.9027 0.9022 0.9020
3476.610278 0.9020 0.9023 0.9028 0.9030 0.9030
3481.839051 0.9030 0.9030 0.9030 0.9030 0.9030
3487.067823 0.9030 0.9033 0.9038 0.9040 0.9040
3492.296596 0.9040 0.9040 0.9037 0.9032 0.9030
3497.525369 0.9030 0.9027 0.9022 0.9020 0.9020
3502.754142 0.9017 0.9012 0.9010 0.9010 0.9010
3507.982914 0.9010 0.9010 0.9010 0.9010 0.9010
3513.211687 0.9013 0.9018 0.9020 0.9020 0.9020
3518.440460 0.9020 0.9020 0.9020 0.9023 0.9028
3523.669233 0.9030 0.9030 0.9030 0.9030 0.9033
3528.898005 0.9038 0.9043 0.9048 0.9050 0.9050
3534.126778 0.9033 0.9008 0.9000 0.9000 0.9010
3539.355551 0.9025 0.9040 0.9055 0.9067 0.9077
3544.584323 0.9080 0.9080 0.9066 0.9046 0.9043
3549.813096 0.9048 0.9053 0.9058 0.9063 0.9068
3555.041869 0.9073 0.9078 0.9083 0.9088 0.9090
3560.270642 0.9090 0.9087 0.9082 0.9070 0.9055
3565.499414 0.9043 0.9033 0.9023 0.9013 0.9006
3570.728187 0.9001 0.9004 0.9009 0.9014 0.9019
3575.956960 0.9027 0.9037 0.9044 0.9049 0.9054
3581.185733 0.9059 0.9060 0.9060 0.9064 0.9069
3586.414505 0.9070 0.9070 0.9070 0.9070 0.9070
3591.643278 0.9070 0.9070 0.9070 0.9070 0.9070
3596.872051 0.9074 0.9079 0.9080 0.9080 0.9084
3602.100824 0.9089 0.9094 0.9099 0.9100 0.9100
3607.329596 0.9100 0.9100 0.9089 0.9074 0.9066
3612.558369 0.9061 0.9071 0.9086 0.9090 0.9090
3617.787142 0.9090 0.9090 0.9090 0.9090 0.9101
3623.015914 0.9116 0.9128 0.9138 0.9114 0.9079
3628.244687 0.9070 0.9070 0.9070 0.9070 0.9074
3633.473460 0.9079 0.9080 0.9080 0.9080 0.9080
3638.702233 0.9084 0.9089 0.9094 0.9099 0.9100
3643.931005 0.9100 0.9115 0.9135 0.9140 0.9140
3649.159778 0.9128 0.9113 0.9102 0.9092 0.9086
3654.388551 0.9081 0.9080 0.9080 0.9080 0.9080
3659.617324 0.9080 0.9080 0.9088 0.9098 0.9108
3664.846096 0.9118 0.9128 0.9138 0.9140 0.9140
3670.074869 0.9144 0.9149 0.9150 0.9150 0.9150
3675.303642 0.9150 0.9150 0.9150 0.9146 0.9141
3680.532415 0.9140 0.9140 0.9140 0.9140 0.9136
3685.761187 0.9131 0.9130 0.9130 0.9126 0.9121
3690.989960 0.9120 0.9120 0.9120 0.9120 0.9116
3696.218733 0.9111 0.9106 0.9101 0.9100 0.9100
3701.447506 0.9100 0.9100 0.9100 0.9100 0.9100
3706.676278 0.9100 0.9100 0.9100 0.9100 0.9100
3711.905051 0.9100 0.9100 0.9100 0.9100 0.9100
3717.133824 0.9100 0.9100 0.9100 0.9104 0.9109
3722.362596 0.9110 0.9110 0.9110 0.9110 0.9110
3727.591369 0.9110 0.9110 0.9110 0.9110 0.9110
3732.820142 0.9114 0.9119 0.9120 0.9120 0.9124
3738.048915 0.9129 0.9143 0.9158 0.9173 0.9188
3743.277687 0.9199 0.9209 0.9214 0.9219 0.9220
3748.506460 0.9220 0.9202 0.9182 0.9158 0.9133
3753.735233 0.9121 0.9111 0.9105 0.9100 0.9100
3758.964006 0.9100 0.9095 0.9090 0.9090 0.9090
3764.192778 0.9090 0.9090 0.9085 0.9080 0.9080
3769.421551 0.9080 0.9080 0.9080 0.9080 0.9080
3774.650324 0.9080 0.9080 0.9080 0.9080 0.9080
3779.879097 0.9080 0.9085 0.9090 0.9090 0.9090
3785.107869 0.9090 0.9090 0.9095 0.9100 0.9109
3790.336642 0.9119 0.9125 0.9130 0.9135 0.9140
3795.565415 0.9145 0.9150 0.9140 0.9130 0.9120
3800.794187 0.9110 0.9100 0.9090 0.9085 0.9080
3806.022960 0.9080 0.9080 0.9090 0.9100 0.9100
3811.251733 0.9100 0.9105 0.9110 0.9115 0.9120
3816.480506 0.9120 0.9120 0.9115 0.9110 0.9105
3821.709278 0.9100 0.9095 0.9090 0.9095 0.9100
3826.938051 0.9110 0.9120 0.9125 0.9130 0.9135
3832.166824 0.9140 0.9140 0.9140 0.9135 0.9130
3837.395597 0.9120 0.9110 0.9110 0.9110 0.9115
3842.624369 0.9120 0.9130 0.9140 0.9150 0.9160
3847.853142 0.9205 0.9250 0.9250 0.9250 0.9230
3853.081915 0.9210 0.9175 0.9140 0.9130 0.9120
3858.310688 0.9120 0.9120 0.9125 0.9130 0.9130
3863.539460 0.9130 0.9130 0.9130 0.9135 0.9140
3868.768233 0.9140 0.9140 0.9135 0.9130 0.9125
3873.997006 0.9120 0.9120 0.9120 0.9115 0.9110
3879.225779 0.9105 0.9100 0.9100 0.9100 0.9100
3884.454551 0.9100 0.9100 0.9100 0.9095 0.9090
3889.683324 0.9090 0.9090 0.9085 0.9080 0.9080
3894.912097 0.9080 0.9080 0.9080 0.9080 0.9080
3900.140869 0.9075 0.9070 0.9070 0.9070 0.9070
3905.369642 0.9070 0.9070 0.9070 0.9070 0.9070
3910.598415 0.9070 0.9070 0.9070 0.9070 0.9070
3915.827188 0.9070 0.9075 0.9080 0.9080 0.9080
3921.055960 0.9085 0.9090 0.9090 0.9090 0.9090
3926.284733 0.9090 0.9095 0.9100 0.9100 0.9100
3931.513506 0.9105 0.9110 0.9110 0.9110 0.9105
3936.742279 0.9100 0.9095 0.9090 0.9085 0.9080
3941.971051 0.9080 0.9079 0.9074 0.9070 0.9070
3947.199824 0.9070 0.9070 0.9070 0.9070 0.9069
3952.428597 0.9064 0.9059 0.9054 0.9049 0.9044
3957.657370 0.9039 0.9034 0.9030 0.9030 0.9031
3962.886142 0.9036 0.9041 0.9051 0.9061 0.9066
3968.114915 0.9070 0.9070 0.9070 0.9070 0.9070
3973.343688 0.9070 0.9071 0.9076 0.9080 0.9080
3978.572460 0.9080 0.9080 0.9081 0.9086 0.9090
3983.801233 0.9090 0.9090 0.9090 0.9091 0.9096
3989.030006 0.9100 0.9100 0.9100 0.9100 0.9100
3994.258779 0.9100 0.9100 0.9100 0.9100 0.9100
3999.487551 0.9100 0.9100
##END=
