##TITLE=Oxazole
##JCAMP-DX=4.24
##DATA TYPE=INFRARED SPECTRUM
##ORIGIN=NIST Mass Spectrometry Data Center
##OWNER=NIST Standard Reference Data Program
Collection (C) 2018 copyright by the U.S. Secretary of Commerce
on behalf of the United States of America. All rights reserved.
##CAS REGISTRY NO=288-42-6
##MOLFORM=C 3 H 3 N O
##$NIST SOURCE=MSDC-IR
##SPECTROMETER/DATA SYSTEM=HP-GC/MS/IRD
##STATE=gas
##XUNITS=1/CM
##YUNITS=ABSORBANCE
##XFACTOR=1.0
##YFACTOR=0.000001400
##DELTAX=4.0
##FIRSTX=550.0
##LASTX=3846.0
##FIRSTY=0.000748
##MAXX=3846
##MINX=550
##MAXY=0.014
##MINY=0
##NPOINTS=825
##XYDATA=(X++(Y..Y))
550.0 534 289 129 392 489 485 547 660 693 747
590.0 756 828 1011 2278 3617 2614 1787 2119 2219 2244
630.0 2179 2339 4385 8874 7832 2518 1486 2102 2470 2704
670.0 2614 2303 1972 1685 1300 945 814 904 1096 1357
710.0 1627 1986 2315 2552 2441 2288 2135 2951 5336 10000
750.0 9574 3640 2453 2824 2898 3138 3135 2970 2683 2383
790.0 2128 2010 1926 1815 1794 1711 1581 1547 2039 4830
830.0 8017 4752 1257 1481 1818 2187 2407 2453 2353 2400
870.0 2592 2827 3180 3587 4001 4348 4758 5191 5132 5302
910.0 5182 4512 4204 3978 3651 3148 2511 1840 1286 842
950.0 485 282 134 49 37 38 29 10 22 38
990.0 62 133 307 483 667 1050 1563 2173 3014 3812
1030.0 4410 4828 5056 5433 6236 7020 7411 8128 8833 8714
1070.0 7834 6601 5703 5111 4539 4186 4076 3884 3734 3724
1110.0 3747 3794 3864 3872 3712 3462 3365 3373 3341 3304
1150.0 3373 3411 3225 2721 2074 1510 1037 681 503 451
1190.0 426 422 422 356 369 399 385 391 365 358
1230.0 376 334 292 297 249 233 264 284 261 235
1270.0 266 292 298 323 347 360 444 566 660 716
1310.0 735 739 717 664 640 645 625 611 611 558
1350.0 466 354 257 172 126 105 76 55 60 47
1390.0 25 32 45 69 77 82 90 86 109 125
1430.0 133 159 217 318 419 523 642 822 1039 1292
1470.0 1613 2048 2519 3072 3576 3900 4002 3920 4035 4357
1510.0 4278 4225 4532 4710 4493 3829 3045 2445 2047 1763
1550.0 1613 1585 1549 1431 1246 1096 1003 988 1020 1038
1590.0 1066 1100 1081 1060 981 919 963 1051 1062 1008
1630.0 950 876 849 849 848 871 904 976 1068 1134
1670.0 1160 1189 1162 1052 897 818 754 710 709 654
1710.0 545 388 280 282 260 214 171 143 126 96
1750.0 60 56 65 55 31 25 22 46 59 60
1790.0 62 49 60 52 42 48 52 59 70 72
1830.0 55 28 22 26 40 70 54 14 28 61
1870.0 65 61 51 54 56 55 57 71 94 80
1910.0 67 62 72 103 97 99 109 86 71 78
1950.0 61 71 78 80 88 80 69 48 66 91
1990.0 79 54 56 72 76 80 95 96 84 82
2030.0 90 71 75 75 62 76 79 80 106 104
2070.0 85 97 93 75 88 107 122 129 118 128
2110.0 164 195 142 88 119 125 130 172 166 137
2150.0 157 183 175 149 133 129 147 176 183 177
2190.0 161 162 179 203 201 188 206 197 192 174
2230.0 143 125 126 126 110 119 132 158 195 187
2270.0 150 125 146 177 186 175 163 171 179 189
2310.0 165 139 158 142 97 84 119 93 46 60
2350.0 70 65 78 89 91 82 109 129 137 147
2390.0 150 154 149 144 133 127 128 139 130 130
2430.0 128 120 109 105 103 115 125 106 113 116
2470.0 125 109 97 125 140 119 77 78 115 119
2510.0 74 56 62 69 82 86 77 84 109 128
2550.0 110 103 120 127 168 165 138 164 182 191
2590.0 207 200 167 183 225 191 149 148 175 195
2630.0 173 167 158 132 117 117 130 147 138 108
2670.0 106 126 114 79 58 61 64 49 58 67
2710.0 85 110 84 55 40 37 54 39 13 30
2750.0 64 84 120 179 126 85 115 77 62 111
2790.0 130 88 58 86 106 91 89 117 120 88
2830.0 103 126 129 108 95 81 78 94 66 70
2870.0 86 132 185 110 41 70 106 70 65 55
2910.0 27 67 84 90 104 90 91 84 76 77
2950.0 76 39 35 109 124 128 139 107 119 152
2990.0 142 122 107 99 105 115 126 111 87 95
3030.0 147 194 163 130 116 129 147 126 155 168
3070.0 128 90 54 125 139 43 77 178 152 139
3110.0 218 271 298 308 340 415 454 454 426 434
3150.0 467 455 465 493 459 362 269 245 222 192
3190.0 171 129 142 127 127 105 65 74 59 48
3230.0 66 45 75 129 132 140 132 98 79 80
3270.0 82 94 76 50 60 115 69 101 173 98
3310.0 111 81 39 90 82 47 43 76 108 76
3350.0 97 145 123 106 48 31 138 161 115 110
3390.0 95 60 89 163 157 152 159 156 172 146
3430.0 86 91 197 204 120 101 168 197 163 126
3470.0 90 68 87 136 210 206 136 135 145 110
3510.0 132 150 115 137 148 90 81 124 183 185
3550.0 178 163 120 60 0 36 82 105 124 137
3590.0 153 210 194 116 169 149 95 67 45 14
3630.0 26 74 103 143 152 145 140 176 149 101
3670.0 95 100 164 147 105 108 125 215 264 214
3710.0 174 155 100 103 148 155 118 104 113 57
3750.0 103 152 118 154 98 111 202 138 111 90
3790.0 163 210 129 116 168 208 217 239 192 100
3830.0 67 98 100 90 109
##END=
