##TITLE=3-Methyl-1,3-pentadiene (c,t)
##JCAMP-DX=4.24
##DATA TYPE=INFRARED SPECTRUM
##ORIGIN=NIST Mass Spectrometry Data Center
##OWNER=NIST Standard Reference Data Program
Collection (C) 2018 copyright by the U.S. Secretary of Commerce
on behalf of the United States of America. All rights reserved.
##CAS REGISTRY NO=4549-74-0
##MOLFORM=C 6 H 10
##$NIST SOURCE=MSDC-IR
##SPECTROMETER/DATA SYSTEM=HP-GC/MS/IRD
##STATE=gas
##XUNITS=1/CM
##YUNITS=ABSORBANCE
##XFACTOR=1.0
##YFACTOR=0.000000700
##DELTAX=4.0
##FIRSTX=550.0
##LASTX=3846.0
##FIRSTY=0.000214
##MAXX=3846
##MINX=550
##MAXY=0.007
##MINY=0
##NPOINTS=825
##XYDATA=(X++(Y..Y))
550.0 305 292 242 174 158 215 170 192 252 200
590.0 97 136 160 98 155 201 199 191 173 102
630.0 0 70 231 226 194 238 308 343 270 269
670.0 356 388 432 473 494 530 550 624 599 586
710.0 613 607 618 569 528 630 739 647 593 574
750.0 549 543 464 434 432 409 400 497 675 759
790.0 823 1044 1250 1374 1633 2069 2362 2190 2008 1973
830.0 1878 1686 1493 1227 992 895 827 867 1012 1240
870.0 1550 1932 2455 3058 3599 4306 5310 6289 7333 7461
910.0 6481 5650 5169 4665 3931 3222 2542 1973 1609 1375
950.0 1260 1277 1366 1515 1776 2039 2262 2542 3037 3677
990.0 3554 2873 2543 2381 2192 1919 1600 1423 1413 1392
1030.0 1319 1310 1339 1311 1336 1362 1343 1366 1391 1487
1070.0 1554 1575 1622 1657 1755 1873 1873 1760 1650 1524
1110.0 1397 1273 1004 703 533 410 355 324 305 292
1150.0 241 255 224 146 174 193 207 234 234 232
1190.0 200 186 237 280 313 302 326 391 448 495
1230.0 535 571 541 543 562 551 515 484 407 388
1270.0 421 419 433 437 441 448 460 470 460 476
1310.0 511 507 498 502 502 563 608 665 733 774
1350.0 864 997 1176 1381 1582 1769 1920 1975 2049 2215
1390.0 2253 2093 1912 1791 1773 1871 2021 2148 2251 2357
1430.0 2408 2417 2471 2526 2497 2348 2195 2074 1952 1872
1470.0 1765 1642 1479 1302 1132 995 926 870 819 809
1510.0 803 806 811 768 724 727 733 734 745 753
1550.0 782 820 830 897 991 1074 1219 1440 1708 1947
1590.0 2189 2426 2579 2618 2620 2532 2334 2126 1948 1775
1630.0 1691 1699 1688 1677 1642 1561 1449 1298 1078 829
1670.0 627 529 469 415 379 335 343 336 295 274
1710.0 251 250 248 231 225 216 204 213 207 176
1750.0 185 219 215 207 215 237 274 327 412 522
1790.0 624 745 874 991 1105 1157 1141 1137 1137 1076
1830.0 983 876 784 713 652 600 535 475 426 387
1870.0 344 294 249 218 207 182 162 176 159 128
1910.0 132 149 142 119 91 84 112 119 122 152
1950.0 162 176 167 141 149 145 150 168 133 112
1990.0 96 93 109 92 89 103 104 82 75 90
2030.0 109 99 76 78 91 111 102 106 110 75
2070.0 51 57 86 88 59 61 82 78 71 90
2110.0 83 49 49 64 84 92 64 72 93 96
2150.0 81 58 41 48 64 65 50 53 64 30
2190.0 20 37 38 57 57 40 44 47 56 74
2230.0 82 60 63 63 48 67 77 69 70 63
2270.0 66 53 36 27 18 40 57 65 70 86
2310.0 93 89 84 82 86 57 54 53 52 73
2350.0 80 61 32 21 66 100 97 106 129 136
2390.0 133 137 128 151 148 106 112 126 122 122
2430.0 121 105 96 110 138 157 148 140 121 102
2470.0 111 120 94 100 119 86 77 101 92 68
2510.0 69 96 70 44 96 110 86 91 91 91
2550.0 91 102 86 56 69 76 75 79 84 78
2590.0 67 88 96 72 90 106 90 95 113 120
2630.0 140 134 139 157 140 121 98 96 112 117
2670.0 137 168 188 208 196 190 195 185 191 207
2710.0 217 257 315 335 360 429 470 454 457 528
2750.0 561 537 512 462 436 409 366 364 382 420
2790.0 438 464 539 576 619 687 718 755 847 968
2830.0 1096 1224 1375 1581 1913 2434 3032 3660 4252 4730
2870.0 5063 5360 5579 5661 5726 5711 5749 5894 6116 6524
2910.0 7145 7900 8675 9288 9694 9902 9994 10000 9805 9381
2950.0 8768 8019 7334 7112 7234 7361 7385 7363 7331 7432
2990.0 7540 7415 7233 7161 7156 7202 7234 7203 7110 6940
3030.0 6658 6268 5733 5104 4461 3918 3466 3129 2941 2858
3070.0 2891 3044 3270 3611 4000 4116 3812 3513 3584 3519
3110.0 2992 2305 1704 1321 1091 913 759 661 574 507
3150.0 508 455 399 382 378 370 353 364 334 297
3190.0 287 318 319 234 231 237 223 217 229 212
3230.0 222 241 170 171 182 154 199 181 144 154
3270.0 178 187 173 166 170 180 148 103 123 129
3310.0 100 126 117 64 46 92 151 118 84 75
3350.0 110 114 70 69 111 98 27 48 105 127
3390.0 125 135 111 132 143 133 130 95 51 94
3430.0 119 131 133 125 153 123 82 62 89 153
3470.0 179 160 175 184 139 114 117 151 157 147
3510.0 169 136 96 122 133 89 82 122 115 78
3550.0 92 98 102 178 188 94 77 139 108 112
3590.0 111 99 107 92 113 169 147 101 83 94
3630.0 128 82 57 94 94 77 70 55 72 57
3670.0 28 21 77 142 108 41 99 119 65 71
3710.0 56 85 113 100 105 123 105 103 127 47
3750.0 60 121 102 93 107 86 66 63 82 111
3790.0 119 109 75 109 95 21 41 57 50 65
3830.0 65 55 117 189 188
##END=
