##TITLE=Crotononitrile
##JCAMP-DX=4.24
##DATA TYPE=INFRARED SPECTRUM
##ORIGIN=NIST Mass Spectrometry Data Center
##OWNER=NIST Standard Reference Data Program
Collection (C) 2018 copyright by the U.S. Secretary of Commerce
on behalf of the United States of America. All rights reserved.
##CAS REGISTRY NO=4786-20-3
##MOLFORM=C 4 H 5 N
##$NIST SOURCE=MSDC-IR
##SPECTROMETER/DATA SYSTEM=HP-GC/MS/IRD
##STATE=gas
##XUNITS=1/CM
##YUNITS=ABSORBANCE
##XFACTOR=1.0
##YFACTOR=0.000000600
##DELTAX=4.0
##FIRSTX=550.0
##LASTX=3846.0
##FIRSTY=0.000260
##MAXX=3846
##MINX=550
##MAXY=0.006
##MINY=0
##NPOINTS=825
##XYDATA=(X++(Y..Y))
550.0 433 287 313 188 33 168 340 60 0 190
590.0 273 253 272 381 346 283 292 237 118 211
630.0 348 312 392 516 485 491 626 684 802 1089
670.0 1189 1233 1439 1860 2362 2923 3538 4154 4541 4878
710.0 5610 6807 8938 10000 8833 7151 5880 5419 4852 4215
750.0 3708 3007 2393 2026 1712 1442 1252 1125 1014 930
790.0 930 875 743 742 670 573 492 409 335 318
830.0 461 529 539 513 438 524 530 467 485 582
870.0 679 690 686 688 699 689 715 822 864 805
910.0 776 832 810 837 1047 1326 1623 2015 2344 2453
950.0 2442 2424 2484 2323 2071 1849 1596 1335 997 780
990.0 704 670 677 665 589 481 476 557 513 439
1030.0 508 562 552 556 497 389 354 404 430 419
1070.0 313 156 183 248 219 202 157 130 169 212
1110.0 186 255 411 327 221 210 277 301 254 193
1150.0 145 140 122 95 59 42 88 71 85 104
1190.0 124 84 22 77 150 132 133 197 148 93
1230.0 94 159 218 199 214 221 139 156 226 186
1270.0 205 249 261 296 321 360 389 421 463 510
1310.0 603 622 623 658 713 727 778 840 854 939
1350.0 1065 1217 1271 1236 1218 1224 1379 1611 1700 1679
1390.0 1644 1604 1542 1568 1751 1914 1998 2065 2139 2313
1430.0 2485 2577 2625 2705 2764 2633 2483 2386 2238 1973
1470.0 1717 1502 1263 1069 963 881 819 772 745 723
1510.0 729 747 752 741 785 855 848 851 866 888
1550.0 906 921 906 861 865 868 854 837 848 872
1590.0 825 846 911 985 1075 1161 1257 1352 1382 1347
1630.0 1309 1291 1346 1431 1368 1188 1039 990 992 957
1670.0 931 894 799 702 664 565 443 357 313 315
1710.0 275 267 274 265 267 299 317 284 310 356
1750.0 398 401 390 393 398 417 370 324 330 308
1790.0 264 247 234 222 194 163 138 141 181 199
1830.0 197 194 179 184 175 155 175 193 187 155
1870.0 150 183 200 204 195 237 245 239 262 236
1910.0 242 268 251 250 239 210 210 238 197 159
1950.0 200 247 240 235 268 296 334 354 325 334
1990.0 356 360 368 357 297 246 218 184 179 191
2030.0 201 201 197 230 222 211 247 210 183 213
2070.0 175 153 157 155 162 179 216 194 153 157
2110.0 195 189 169 192 138 99 105 124 152 122
2150.0 109 141 164 174 205 186 131 135 156 153
2190.0 196 279 379 470 572 693 778 848 918 926
2230.0 895 908 872 760 571 355 252 237 258 222
2270.0 174 219 231 232 208 181 169 158 155 183
2310.0 210 218 183 153 212 258 251 221 215 198
2350.0 215 245 217 178 190 195 190 200 184 159
2390.0 143 163 171 165 171 150 138 144 135 164
2430.0 165 147 161 152 170 176 197 242 219 196
2470.0 211 198 198 184 198 211 204 239 242 216
2510.0 170 154 191 202 154 162 182 165 166 191
2550.0 181 135 129 175 196 156 157 170 161 122
2590.0 101 97 79 107 129 105 119 111 75 82
2630.0 63 65 58 40 75 96 96 93 17 11
2670.0 60 63 112 131 146 155 114 99 117 102
2710.0 118 151 187 198 192 192 243 279 234 188
2750.0 166 201 273 262 208 226 319 398 367 339
2790.0 321 304 298 300 370 323 246 255 323 393
2830.0 392 471 564 635 736 786 839 919 992 959
2870.0 931 1043 1096 1053 1089 1100 1086 1124 1187 1245
2910.0 1413 1699 1906 2027 2064 2123 2258 2379 2452 2495
2950.0 2366 2216 2303 2151 1830 1701 1669 1638 1624 1548
2990.0 1470 1409 1361 1290 1236 1208 1124 1069 1139 1352
3030.0 1613 1865 2058 2225 2288 2245 2316 2441 2465 2461
3070.0 2341 2051 1734 1448 1224 1094 953 754 646 510
3110.0 445 507 456 449 513 466 357 215 176 216
3150.0 261 256 250 271 238 219 234 212 160 155
3190.0 215 256 219 242 264 257 253 246 248 177
3230.0 198 208 130 151 184 133 76 138 119 77
3270.0 157 182 154 131 199 197 186 233 193 220
3310.0 238 222 185 185 212 199 188 174 201 263
3350.0 245 132 115 160 73 23 121 105 62 90
3390.0 70 50 55 20 48 54 55 159 201 162
3430.0 125 141 139 148 152 110 127 166 141 123
3470.0 148 154 124 38 62 166 160 210 201 170
3510.0 181 222 160 114 189 157 109 52 47 110
3550.0 125 99 155 113 123 129 132 122 107 177
3590.0 223 156 27 43 136 140 159 161 130 166
3630.0 113 91 79 96 154 134 153 222 175 155
3670.0 296 246 136 167 117 159 233 163 110 121
3710.0 108 128 152 118 163 175 102 177 236 228
3750.0 222 167 176 248 270 207 224 235 187 162
3790.0 147 166 240 225 174 157 191 111 128 188
3830.0 127 182 181 235 331
##END=
