##TITLE=1,3-Dioxane
##JCAMP-DX=4.24
##DATA TYPE=INFRARED SPECTRUM
##ORIGIN=NIST Mass Spectrometry Data Center
##OWNER=NIST Standard Reference Data Program
Collection (C) 2018 copyright by the U.S. Secretary of Commerce
on behalf of the United States of America. All rights reserved.
##CAS REGISTRY NO=505-22-6
##MOLFORM=C 4 H 8 O 2
##$NIST SOURCE=MSDC-IR
##SPECTROMETER/DATA SYSTEM=HP-GC/MS/IRD
##STATE=gas
##XUNITS=1/CM
##YUNITS=ABSORBANCE
##XFACTOR=1.0
##YFACTOR=0.000002000
##DELTAX=4.0
##FIRSTX=550.0
##LASTX=3846.0
##FIRSTY=0.000180
##MAXX=3846
##MINX=550
##MAXY=0.02
##MINY=0
##NPOINTS=825
##XYDATA=(X++(Y..Y))
550.0 90 118 158 182 144 138 118 85 49 29
590.0 40 65 30 59 90 82 104 131 169 201
630.0 211 222 316 392 352 324 368 389 369 313
670.0 248 203 136 66 45 35 46 49 56 88
710.0 82 73 82 92 73 65 106 87 32 47
750.0 49 11 3 23 43 52 48 66 100 113
790.0 80 100 173 253 367 511 637 719 785 902
830.0 1193 1352 1037 833 917 921 845 752 738 813
870.0 971 1170 1403 1752 2081 2280 2402 2651 3170 3083
910.0 2411 2257 2258 2071 1834 1491 1106 785 548 449
950.0 452 496 608 762 1001 1304 1666 2103 2857 4676
990.0 6447 6651 7181 8485 9165 9430 9355 8322 7650 7656
1030.0 7016 5791 4622 3889 3529 3387 3273 3004 2801 2766
1070.0 2558 2303 2158 2090 2111 2195 2292 2341 2357 2413
1110.0 2397 2248 2132 2193 2568 3216 4144 5303 6529 7615
1150.0 8370 8868 9242 9345 9452 9808 9642 8602 7259 6346
1190.0 5722 4870 4379 4416 4347 3954 3487 3068 2665 2459
1230.0 2395 2119 1872 1703 1406 1048 730 527 441 414
1270.0 419 446 473 569 771 793 670 632 614 560
1310.0 473 412 370 324 288 284 291 300 328 386
1350.0 459 561 683 803 891 924 965 1013 1074 1141
1390.0 1182 1126 987 910 889 820 799 788 685 555
1430.0 550 630 550 500 570 614 631 647 693 686
1470.0 644 658 780 899 662 399 373 337 288 232
1510.0 168 118 80 53 40 32 31 30 27 28
1550.0 21 19 15 7 19 22 22 19 7 0
1590.0 2 4 7 17 15 3 13 32 37 37
1630.0 27 25 29 43 48 41 46 56 50 52
1670.0 52 48 47 39 24 16 23 26 25 14
1710.0 16 31 36 36 35 50 57 46 42 38
1750.0 41 48 35 25 31 33 39 42 40 40
1790.0 46 37 33 48 45 34 22 14 23 22
1830.0 30 30 17 21 28 32 36 31 26 34
1870.0 51 58 45 51 76 79 89 108 105 127
1910.0 137 138 159 165 155 160 171 170 160 138
1950.0 132 128 101 83 92 103 100 105 121 118
1990.0 109 124 139 133 126 115 110 90 70 82
2030.0 94 95 95 91 93 93 86 86 79 57
2070.0 32 22 38 51 46 38 27 22 22 23
2110.0 38 42 44 46 31 29 41 37 33 51
2150.0 70 79 77 74 74 61 52 54 68 62
2190.0 50 45 32 22 12 0 10 20 32 26
2230.0 21 27 23 34 33 29 25 27 42 48
2270.0 55 43 33 34 47 63 55 48 53 57
2310.0 65 70 52 47 57 61 51 41 62 82
2350.0 86 83 90 91 72 78 84 74 68 64
2390.0 63 59 59 51 33 32 36 32 26 19
2430.0 12 27 27 16 24 27 34 30 24 20
2470.0 28 27 9 20 18 19 33 20 29 39
2510.0 34 38 40 33 37 47 58 64 77 91
2550.0 86 98 103 99 104 85 80 84 97 120
2590.0 119 117 126 101 86 94 97 126 159 186
2630.0 197 178 188 219 219 239 278 340 358 312
2670.0 310 338 364 395 419 466 514 554 566 577
2710.0 608 661 740 804 858 937 1024 1125 1325 1580
2750.0 1706 1757 1827 1896 1981 2092 2280 2546 2355 1762
2790.0 1601 1674 1726 1774 1862 2082 2409 2860 3420 4213
2830.0 5425 6566 7074 7213 7565 9102 10000 8247 6346 5535
2870.0 4942 4254 3449 2725 2139 1731 1508 1427 1431 1520
2910.0 1688 1927 2279 2633 2804 2910 3169 3499 3774 3882
2950.0 3868 4032 5635 7271 6596 5934 6027 6340 6783 6378
2990.0 5885 5777 5299 4434 3601 3030 2565 2177 1940 1676
3030.0 1272 846 527 338 250 215 177 136 152 159
3070.0 132 99 106 128 123 127 132 137 114 102
3110.0 89 80 116 98 82 86 85 69 31 36
3150.0 66 51 50 60 43 61 82 82 79 73
3190.0 46 26 51 37 28 69 77 84 72 40
3230.0 55 79 73 41 41 86 71 36 66 89
3270.0 60 44 58 77 60 44 45 30 31 31
3310.0 37 35 7 17 43 39 56 56 44 30
3350.0 12 4 2 22 55 55 43 34 31 27
3390.0 52 76 73 66 49 35 53 57 34 37
3430.0 55 48 19 7 62 99 84 62 17 27
3470.0 53 58 52 58 66 79 82 63 39 32
3510.0 35 45 42 26 52 81 74 62 54 38
3550.0 39 24 25 47 45 40 27 46 54 60
3590.0 82 61 53 49 59 54 27 59 112 89
3630.0 26 19 41 32 5 0 20 52 55 51
3670.0 46 73 99 69 54 67 86 80 52 53
3710.0 78 82 64 46 64 87 89 91 120 137
3750.0 105 93 118 111 83 74 89 102 69 46
3790.0 58 45 44 81 97 80 54 66 86 68
3830.0 54 84 82 70 72
##END=
