##TITLE=2-Bromo-2-methylbutane
##JCAMP-DX=4.24
##DATA TYPE=INFRARED SPECTRUM
##ORIGIN=NIST Mass Spectrometry Data Center
##OWNER=NIST Standard Reference Data Program
Collection (C) 2018 copyright by the U.S. Secretary of Commerce
on behalf of the United States of America. All rights reserved.
##CAS REGISTRY NO=507-36-8
##MOLFORM=C 5 H 11 Br
##$NIST SOURCE=MSDC-IR
##SPECTROMETER/DATA SYSTEM=HP-GC/MS/IRD
##STATE=gas
##XUNITS=1/CM
##YUNITS=ABSORBANCE
##XFACTOR=1.0
##YFACTOR=0.000001100
##DELTAX=4.0
##FIRSTX=550.0
##LASTX=3846.0
##FIRSTY=0.000438
##MAXX=3846
##MINX=550
##MAXY=0.011
##MINY=0
##NPOINTS=825
##XYDATA=(X++(Y..Y))
550.0 398 290 203 266 309 330 363 389 421 404
590.0 307 333 431 393 386 400 328 225 100 78
630.0 84 58 131 141 58 32 80 94 34 17
670.0 100 134 83 28 36 63 71 102 145 130
710.0 80 82 132 127 89 138 202 234 273 342
750.0 438 617 766 824 899 980 991 995 1062 1091
790.0 1157 1264 1272 1229 1059 806 600 417 312 279
830.0 187 92 78 102 64 52 104 122 123 135
870.0 179 222 226 224 250 292 331 343 362 404
910.0 462 525 492 415 349 268 170 135 109 90
950.0 87 76 115 120 125 141 133 158 200 303
990.0 412 494 577 612 679 725 708 671 611 570
1030.0 514 455 472 537 637 745 794 798 758 662
1070.0 564 501 437 471 542 579 702 953 1341 1821
1110.0 2361 2870 3296 3772 4288 4573 4593 4610 4515 4170
1150.0 3701 2911 1970 1395 1145 1097 1088 1092 1107 1036
1190.0 953 925 872 795 762 766 777 807 804 752
1230.0 679 558 447 349 281 259 261 277 320 433
1270.0 549 705 869 939 958 936 882 770 613 494
1310.0 413 369 341 360 408 441 496 546 576 654
1350.0 804 1035 1289 1563 1862 2446 2926 2813 2814 2858
1390.0 2623 2200 1742 1367 1044 828 709 678 739 842
1430.0 982 1189 1460 1746 2061 2355 2554 2674 2720 2568
1470.0 2295 2003 1668 1347 1064 839 686 589 515 479
1510.0 460 437 438 453 448 421 402 401 412 411
1550.0 388 387 407 391 373 368 352 338 329 290
1590.0 254 229 221 206 172 165 163 167 158 132
1630.0 125 137 168 182 161 169 177 163 151 119
1670.0 98 88 68 68 61 55 59 75 79 67
1710.0 55 47 17 0 3 2 1 0 7 5
1750.0 17 44 35 20 34 66 76 68 65 70
1790.0 86 90 85 87 84 91 85 85 107 103
1830.0 88 76 85 90 77 72 76 80 68 62
1870.0 81 79 78 86 79 80 60 42 45 54
1910.0 65 78 71 69 72 64 62 63 63 44
1950.0 36 43 28 38 47 35 51 70 74 60
1990.0 44 50 49 45 36 51 51 46 59 34
2030.0 20 16 20 33 15 25 51 44 49 63
2070.0 52 28 14 20 41 52 46 40 60 66
2110.0 59 48 48 55 52 53 67 65 37 58
2150.0 80 63 58 71 67 55 66 74 64 69
2190.0 74 75 69 54 38 44 43 40 51 42
2230.0 23 37 49 45 47 42 33 34 34 31
2270.0 30 35 50 61 55 52 59 67 73 75
2310.0 71 71 54 39 45 45 40 46 52 61
2350.0 43 29 55 54 31 25 29 48 61 55
2390.0 56 72 61 55 77 92 62 43 48 42
2430.0 48 61 59 45 45 59 59 47 39 33
2470.0 33 55 45 17 21 38 33 25 35 38
2510.0 43 41 28 30 40 35 15 19 52 65
2550.0 81 87 80 86 87 73 71 60 59 86
2590.0 81 83 87 85 96 93 95 98 110 96
2630.0 70 88 79 57 64 73 103 132 136 142
2670.0 136 142 153 138 126 119 132 122 105 106
2710.0 134 165 184 195 195 228 259 252 225 234
2750.0 249 220 197 200 206 263 272 250 279 289
2790.0 297 302 304 343 377 410 445 472 523 595
2830.0 682 832 1044 1282 1506 1730 1906 2046 2213 2436
2870.0 2697 2985 3350 3817 4271 4637 4929 5141 5229 5277
2910.0 5328 5358 5526 5824 6157 6451 6678 6917 6870 6418
2950.0 6016 5827 5935 6413 7125 8089 9193 9954 10000 9785
2990.0 9260 7804 6222 4991 3790 2812 2024 1398 1013 803
3030.0 723 689 615 550 552 532 492 476 472 468
3070.0 468 454 455 483 453 422 433 415 379 316
3110.0 250 241 238 249 231 216 214 214 236 218
3150.0 193 235 221 173 209 204 171 186 181 182
3190.0 167 154 167 184 215 198 140 139 219 216
3230.0 155 157 165 198 192 142 129 157 166 157
3270.0 153 128 94 80 76 65 70 110 84 68
3310.0 46 12 46 40 21 41 76 64 46 96
3350.0 136 89 65 89 70 102 130 101 116 114
3390.0 107 150 114 68 84 72 109 133 137 133
3430.0 121 120 87 79 104 61 52 75 72 76
3470.0 93 107 112 118 114 96 112 155 146 113
3510.0 110 120 125 136 133 117 108 83 122 144
3550.0 100 88 51 84 120 78 94 107 93 99
3590.0 83 87 120 94 65 82 120 129 114 108
3630.0 139 132 99 122 142 96 86 114 92 106
3670.0 111 110 101 116 154 121 110 132 100 67
3710.0 113 146 124 113 114 108 115 99 101 111
3750.0 124 119 123 99 107 96 64 58 84 157
3790.0 171 112 87 120 139 121 79 101 109 94
3830.0 141 129 115 126 103
##END=
