##TITLE=2-Methyl-1-propanethiol
##JCAMP-DX=4.24
##DATA TYPE=INFRARED SPECTRUM
##ORIGIN=NIST Mass Spectrometry Data Center
##OWNER=NIST Standard Reference Data Program
Collection (C) 2018 copyright by the U.S. Secretary of Commerce
on behalf of the United States of America. All rights reserved.
##CAS REGISTRY NO=513-44-0
##MOLFORM=C 4 H 10 S
##$NIST SOURCE=MSDC-IR
##SPECTROMETER/DATA SYSTEM=HP-GC/MS/IRD
##STATE=gas
##XUNITS=1/CM
##YUNITS=ABSORBANCE
##XFACTOR=1.0
##YFACTOR=0.000007000
##DELTAX=4.0
##FIRSTX=550.0
##LASTX=3846.0
##FIRSTY=0.000287
##MAXX=3846
##MINX=550
##MAXY=0.07
##MINY=0
##NPOINTS=825
##XYDATA=(X++(Y..Y))
550.0 41 11 21 23 15 16 6 2 18 11
590.0 16 20 9 11 16 27 35 26 34 47
630.0 36 35 52 52 59 79 84 93 107 111
670.0 122 133 141 145 145 153 180 222 254 274
710.0 298 316 315 305 269 214 173 143 126 116
750.0 100 99 104 106 103 117 134 145 167 183
790.0 195 205 217 227 226 227 210 198 188 174
830.0 164 150 132 113 97 87 85 89 89 83
870.0 93 103 110 115 119 128 140 162 187 215
910.0 254 294 333 361 384 407 416 406 393 372
950.0 336 298 276 254 222 189 160 139 125 112
990.0 94 85 83 82 81 74 74 68 65 70
1030.0 70 71 77 72 64 73 88 99 110 130
1070.0 157 189 228 271 306 343 375 389 402 395
1110.0 364 325 283 246 212 189 164 151 162 191
1150.0 235 276 321 357 349 325 299 265 223 169
1190.0 125 110 117 143 177 217 254 287 330 380
1230.0 449 539 652 785 883 933 969 961 916 814
1270.0 643 469 343 257 211 185 185 205 240 296
1310.0 363 426 485 520 533 551 562 534 496 490
1350.0 513 566 659 777 887 965 1114 1326 1396 1369
1390.0 1271 1097 953 765 561 433 391 398 433 494
1430.0 577 669 768 884 1007 1108 1174 1217 1284 1376
1470.0 1386 1238 1054 925 798 668 538 421 322 253
1510.0 199 159 132 120 109 97 93 88 84 79
1550.0 77 80 82 78 77 74 72 73 68 65
1590.0 64 63 63 59 57 59 59 56 54 54
1630.0 55 58 55 53 58 64 59 56 59 56
1670.0 56 59 56 53 50 46 41 41 41 34
1710.0 30 27 28 29 26 20 19 21 18 13
1750.0 11 10 11 10 11 13 9 8 10 11
1790.0 13 13 16 14 15 18 17 15 11 8
1830.0 11 14 13 12 13 13 14 16 15 18
1870.0 22 19 13 12 15 16 17 19 13 9
1910.0 7 5 5 6 6 5 6 3 2 2
1950.0 1 2 4 5 6 5 4 4 3 4
1990.0 4 4 6 7 6 3 7 6 3 4
2030.0 6 5 0 0 4 7 5 6 5 2
2070.0 4 5 4 5 4 1 0 2 9 7
2110.0 5 7 8 13 15 14 12 14 12 9
2150.0 10 13 14 13 14 14 11 13 15 13
2190.0 14 16 15 16 16 13 12 9 6 6
2230.0 6 6 10 7 7 10 5 4 8 8
2270.0 10 12 11 11 13 11 11 15 16 16
2310.0 16 13 12 11 9 14 15 10 8 6
2350.0 9 10 12 15 17 18 17 18 17 19
2390.0 22 20 18 21 24 24 27 27 29 30
2430.0 26 25 27 26 22 21 21 23 23 22
2470.0 22 22 27 28 26 29 33 34 33 30
2510.0 35 39 34 29 34 38 37 38 36 46
2550.0 53 57 64 72 80 89 102 118 142 167
2590.0 183 186 188 185 184 173 154 140 133 133
2630.0 128 119 117 111 103 97 93 91 91 97
2670.0 98 103 101 101 104 104 109 112 112 115
2710.0 120 127 135 146 164 178 187 192 198 204
2750.0 196 191 192 194 198 201 199 208 217 219
2790.0 227 243 263 285 303 330 356 385 422 465
2830.0 518 573 637 711 790 895 1034 1231 1507 1867
2870.0 2234 2493 2650 2833 3014 3118 3164 3190 3229 3315
2910.0 3476 3708 3998 4336 4735 5157 5520 5828 6171 6614
2950.0 7176 7868 8678 9641 10000 9391 8655 7831 6690 5277
2990.0 3783 2501 1609 1066 744 552 432 365 326 297
3030.0 270 251 238 236 234 224 224 228 229 227
3070.0 226 226 222 215 209 195 188 185 185 182
3110.0 175 168 170 170 169 167 154 152 167 171
3150.0 169 173 176 173 176 174 178 187 178 168
3190.0 166 161 150 144 135 121 107 101 91 81
3230.0 69 58 52 46 39 34 33 37 37 38
3270.0 42 37 41 47 54 56 51 48 51 54
3310.0 57 60 64 62 57 55 53 53 52 51
3350.0 49 47 46 51 50 51 54 51 47 43
3390.0 42 42 45 49 41 30 31 33 27 20
3430.0 22 19 21 31 32 24 25 21 18 20
3470.0 20 25 23 17 16 13 14 14 11 18
3510.0 21 17 20 23 24 17 20 23 25 26
3550.0 17 12 2 7 17 16 14 12 7 11
3590.0 14 12 13 10 7 9 13 13 15 15
3630.0 19 20 19 14 9 22 31 20 12 19
3670.0 24 27 37 33 33 35 26 27 30 27
3710.0 31 42 42 36 36 38 38 37 36 33
3750.0 28 29 28 27 28 32 38 39 32 34
3790.0 42 32 29 33 32 35 38 44 47 42
3830.0 48 48 44 52 55
##END=
