##TITLE=Isobutyl iodide
##JCAMP-DX=4.24
##DATA TYPE=INFRARED SPECTRUM
##ORIGIN=NIST Mass Spectrometry Data Center
##OWNER=NIST Standard Reference Data Program
Collection (C) 2018 copyright by the U.S. Secretary of Commerce
on behalf of the United States of America. All rights reserved.
##CAS REGISTRY NO=513-38-2
##MOLFORM=C 4 H 9 I
##$NIST SOURCE=MSDC-IR
##SPECTROMETER/DATA SYSTEM=HP-GC/MS/IRD
##STATE=gas
##XUNITS=1/CM
##YUNITS=ABSORBANCE
##XFACTOR=1.0
##YFACTOR=0.000005700
##DELTAX=4.0
##FIRSTX=550.0
##LASTX=3846.0
##FIRSTY=0.000428
##MAXX=3846
##MINX=550
##MAXY=0.057
##MINY=0
##NPOINTS=825
##XYDATA=(X++(Y..Y))
550.0 75 49 52 90 145 227 329 432 542 672
590.0 841 1055 1265 1379 1407 1445 1324 865 419 225
630.0 148 102 74 53 34 28 25 20 18 17
670.0 10 7 8 7 14 16 15 17 22 22
710.0 14 9 5 8 8 5 6 9 14 15
750.0 23 41 58 84 125 180 251 341 402 422
790.0 431 418 368 310 268 247 242 254 260 241
830.0 221 192 158 117 78 59 48 39 35 35
870.0 39 42 49 62 82 83 75 78 96 137
910.0 205 298 384 440 503 579 607 577 545 531
950.0 495 405 314 254 202 149 101 64 44 41
990.0 43 39 38 48 57 67 80 91 109 131
1030.0 152 171 174 174 180 174 159 159 152 130
1070.0 123 129 140 175 234 277 314 347 375 393
1110.0 378 346 329 317 311 301 305 323 338 378
1150.0 447 537 657 778 913 1106 1431 2023 3032 4274
1190.0 5166 5497 5623 5201 3909 2589 1657 1025 663 460
1230.0 338 260 209 175 152 138 126 120 127 138
1270.0 153 179 218 280 365 495 692 942 1186 1334
1310.0 1366 1370 1304 1066 808 654 552 481 454 466
1350.0 509 584 703 859 1021 1150 1313 1580 1783 1783
1390.0 1671 1513 1263 930 666 527 479 496 546 609
1430.0 678 748 837 947 1081 1237 1384 1526 1643 1684
1470.0 1621 1453 1249 1044 834 645 490 376 292 226
1510.0 182 157 137 124 116 111 109 107 105 107
1550.0 111 111 111 112 107 101 92 84 78 72
1590.0 69 67 64 65 65 64 65 66 67 66
1630.0 68 69 72 73 71 67 65 67 67 65
1670.0 61 58 57 57 53 52 48 43 43 41
1710.0 38 33 29 29 28 24 20 18 18 16
1750.0 14 19 24 25 25 26 27 26 25 26
1790.0 25 25 28 30 32 30 29 29 30 31
1830.0 30 30 33 33 32 33 34 31 27 25
1870.0 23 22 20 18 16 15 14 14 13 11
1910.0 10 11 12 11 7 4 5 4 5 4
1950.0 3 6 7 8 11 15 19 22 25 25
1990.0 23 22 20 20 19 17 15 13 13 12
2030.0 12 13 14 12 7 4 3 3 1 0
2070.0 2 5 6 7 9 11 14 14 12 12
2110.0 10 9 15 19 20 23 26 26 27 29
2150.0 29 28 26 25 26 25 21 20 21 21
2190.0 22 23 23 26 29 31 32 34 36 33
2230.0 32 31 31 32 31 32 34 33 31 30
2270.0 27 24 24 26 26 24 22 23 22 20
2310.0 17 14 12 11 11 12 11 11 12 13
2350.0 13 14 18 23 29 37 44 49 51 53
2390.0 51 48 42 35 33 32 27 20 14 12
2430.0 10 8 9 9 6 6 8 8 11 14
2470.0 16 20 19 19 20 22 24 23 25 30
2510.0 29 24 22 20 17 19 23 18 15 14
2550.0 14 16 20 20 25 33 39 50 55 59
2590.0 68 74 75 78 83 85 79 73 73 70
2630.0 62 59 55 50 50 48 50 51 50 45
2670.0 43 46 47 45 43 42 43 42 43 47
2710.0 51 61 77 92 107 122 137 148 152 154
2750.0 152 150 149 149 148 151 151 146 147 147
2790.0 153 167 181 197 218 240 262 284 312 348
2830.0 389 441 508 598 715 857 1032 1248 1516 1846
2870.0 2209 2489 2583 2614 2609 2494 2337 2240 2213 2251
2910.0 2349 2480 2633 2857 3166 3510 3853 4220 4664 5176
2950.0 5724 6354 7232 8534 9736 10000 9670 9003 7753 6079
2990.0 4326 2897 2018 1537 1241 1039 897 774 644 531
3030.0 442 368 312 272 249 241 243 245 249 251
3070.0 255 253 239 233 217 201 198 193 186 181
3110.0 171 165 162 158 160 162 159 152 152 148
3150.0 145 148 147 148 153 160 158 158 158 159
3190.0 157 149 144 132 118 103 88 73 62 58
3230.0 51 45 41 45 47 47 47 44 40 29
3270.0 26 29 25 21 24 22 18 18 25 31
3310.0 30 27 25 22 26 31 34 37 39 39
3350.0 47 52 56 58 51 48 48 42 37 39
3390.0 42 43 43 39 32 28 28 23 21 21
3430.0 18 16 16 17 19 17 15 16 17 16
3470.0 17 15 12 13 18 17 16 11 6 9
3510.0 19 28 25 22 20 21 23 24 25 19
3550.0 17 22 28 31 27 28 25 20 18 18
3590.0 22 25 20 17 26 29 26 26 22 19
3630.0 16 12 11 15 15 18 22 23 24 24
3670.0 19 23 23 19 17 19 23 22 20 25
3710.0 30 27 26 29 32 31 33 35 27 25
3750.0 28 28 33 37 36 38 41 39 37 37
3790.0 37 40 51 51 46 47 44 43 48 46
3830.0 46 51 49 45 46
##END=
