##TITLE=2,3-Dimethyl-1-butene
##JCAMP-DX=4.24
##DATA TYPE=INFRARED SPECTRUM
##ORIGIN=NIST Mass Spectrometry Data Center
##OWNER=NIST Standard Reference Data Program
Collection (C) 2018 copyright by the U.S. Secretary of Commerce
on behalf of the United States of America. All rights reserved.
##CAS REGISTRY NO=563-78-0
##MOLFORM=C 6 H 12
##$NIST SOURCE=MSDC-IR
##SPECTROMETER/DATA SYSTEM=HP-GC/MS/IRD
##STATE=gas
##XUNITS=1/CM
##YUNITS=ABSORBANCE
##XFACTOR=1.0
##YFACTOR=0.000005100
##DELTAX=4.0
##FIRSTX=550.0
##LASTX=3846.0
##FIRSTY=0.002499
##MAXX=3846
##MINX=550
##MAXY=0.051
##MINY=0
##NPOINTS=825
##XYDATA=(X++(Y..Y))
550.0 490 481 447 385 312 274 222 155 107 92
590.0 77 55 29 34 28 9 12 20 24 30
630.0 31 19 13 13 17 14 12 4 3 27
670.0 26 19 26 22 28 40 50 52 49 57
710.0 69 78 87 87 86 88 73 59 59 66
750.0 59 47 44 39 32 26 22 27 27 20
790.0 20 17 14 25 48 63 58 55 71 90
830.0 98 110 127 157 192 240 313 428 616 876
870.0 1186 1513 1818 2131 2575 3005 2897 2422 2070 1790
910.0 1449 1092 776 529 381 298 245 206 186 173
950.0 155 152 156 151 139 119 104 103 93 86
990.0 96 95 97 103 96 86 73 64 59 54
1030.0 48 44 55 54 45 55 79 88 106 134
1070.0 164 223 286 358 433 483 536 583 586 554
1110.0 496 421 345 278 240 233 235 249 278 305
1150.0 313 317 319 295 273 248 210 175 139 111
1190.0 101 102 98 98 101 107 133 164 194 228
1230.0 249 272 287 279 267 261 238 200 178 162
1270.0 154 161 177 186 199 225 255 291 330 346
1310.0 341 333 293 244 220 217 230 263 311 388
1350.0 486 602 751 943 1135 1260 1352 1420 1438 1400
1390.0 1300 1153 975 811 700 656 666 698 749 818
1430.0 903 1020 1162 1311 1431 1502 1549 1605 1636 1610
1470.0 1508 1341 1157 973 803 656 532 425 340 282
1510.0 243 217 197 177 162 152 139 130 129 130
1550.0 127 126 134 134 137 152 162 178 199 212
1590.0 228 249 272 302 337 390 457 549 664 798
1630.0 929 1035 1126 1193 1208 1133 1002 873 721 553
1670.0 403 292 216 172 145 121 106 95 87 86
1710.0 80 74 73 65 61 62 62 60 59 59
1750.0 62 70 76 92 122 145 166 184 202 215
1790.0 212 199 188 172 144 113 90 73 62 55
1830.0 48 39 32 30 33 32 29 28 27 26
1870.0 23 22 24 20 19 22 22 25 25 23
1910.0 23 21 17 12 15 16 17 17 14 11
1950.0 11 13 14 11 13 16 14 11 15 18
1990.0 18 16 13 15 17 15 10 14 15 11
2030.0 7 9 8 12 13 11 13 11 9 9
2070.0 13 12 9 10 13 11 12 9 11 16
2110.0 13 12 13 11 10 11 6 4 7 9
2150.0 10 8 4 3 2 1 3 3 1 5
2190.0 8 9 8 5 0 2 6 7 8 12
2230.0 17 19 16 14 19 21 20 21 23 18
2270.0 13 14 15 16 15 14 10 9 9 4
2310.0 5 11 12 12 14 13 17 18 14 13
2350.0 13 17 20 22 26 22 17 17 21 24
2390.0 21 19 19 18 21 22 21 18 17 17
2430.0 16 17 14 12 17 23 21 16 14 21
2470.0 26 22 18 20 22 22 24 21 13 9
2510.0 11 11 13 15 17 21 26 29 30 29
2550.0 33 33 33 42 50 56 63 65 61 61
2590.0 62 63 60 56 46 42 42 40 40 43
2630.0 44 40 36 36 40 42 42 42 44 47
2670.0 48 52 55 57 59 62 67 73 81 89
2710.0 95 108 124 132 138 149 160 167 165 160
2750.0 156 154 146 145 154 158 165 164 166 177
2790.0 189 207 233 253 269 295 326 346 370 408
2830.0 455 507 573 665 797 972 1193 1470 1803 2170
2870.0 2538 2887 3191 3392 3471 3502 3526 3555 3589 3613
2910.0 3630 3690 3809 3980 4187 4395 4620 4895 5273 5828
2950.0 6555 7393 8217 9080 9917 10000 9590 8942 7843 6629
2990.0 5327 4035 2987 2259 1767 1429 1197 1025 903 821
3030.0 751 702 682 672 683 717 779 891 1033 1167
3070.0 1294 1473 1611 1555 1490 1475 1315 1107 952 769
3110.0 575 425 335 279 247 232 210 192 181 172
3150.0 170 163 150 147 154 154 146 141 145 140
3190.0 131 130 126 122 115 104 97 94 86 82
3230.0 71 66 60 50 48 48 43 39 44 47
3270.0 40 32 31 32 31 31 33 35 38 34
3310.0 30 30 28 28 29 26 22 15 12 13
3350.0 11 8 14 17 12 19 24 19 21 16
3390.0 20 31 28 25 24 16 10 11 8 1
3430.0 9 18 14 10 14 10 10 17 16 15
3470.0 18 20 23 25 23 29 31 37 41 35
3510.0 34 27 25 20 14 21 17 16 17 13
3550.0 11 13 14 10 13 15 12 11 21 32
3590.0 22 13 15 21 26 14 11 18 15 6
3630.0 7 13 17 10 9 22 15 3 14 20
3670.0 21 20 20 15 9 11 3 3 20 17
3710.0 11 10 1 4 9 4 12 14 9 16
3750.0 17 16 16 21 24 20 25 29 22 14
3790.0 19 27 30 28 25 29 25 20 20 20
3830.0 25 28 31 39 31
##END=
