##TITLE=1,2-Pentadiene
##JCAMP-DX=4.24
##DATA TYPE=INFRARED SPECTRUM
##ORIGIN=NIST Mass Spectrometry Data Center
##OWNER=NIST Standard Reference Data Program
Collection (C) 2018 copyright by the U.S. Secretary of Commerce
on behalf of the United States of America. All rights reserved.
##CAS REGISTRY NO=591-95-7
##MOLFORM=C 5 H 8
##$NIST SOURCE=MSDC-IR
##SPECTROMETER/DATA SYSTEM=HP-GC/MS/IRD
##STATE=gas
##XUNITS=1/CM
##YUNITS=ABSORBANCE
##XFACTOR=1.0
##YFACTOR=0.000003200
##DELTAX=4.0
##FIRSTX=550.0
##LASTX=3846.0
##FIRSTY=0.002598
##MAXX=3846
##MINX=550
##MAXY=0.032
##MINY=0
##NPOINTS=825
##XYDATA=(X++(Y..Y))
550.0 812 624 479 430 351 326 298 256 220 230
590.0 259 258 251 254 245 249 245 250 247 218
630.0 213 202 164 135 105 89 64 53 74 71
670.0 88 92 85 101 82 95 105 76 62 57
710.0 75 63 42 29 18 28 43 62 94 112
750.0 127 169 235 290 346 422 489 563 675 791
790.0 909 1057 1239 1439 1714 2070 2468 2938 3510 4231
830.0 5051 5833 6446 6907 7131 7222 7345 7329 6977 6344
870.0 5583 4789 4093 3495 2945 2415 1955 1577 1243 987
910.0 790 637 530 442 354 269 239 214 169 147
950.0 123 97 103 121 116 114 140 167 192 225
990.0 254 278 307 347 380 379 380 380 387 385
1030.0 375 386 389 410 446 481 521 550 580 588
1070.0 570 558 551 517 452 382 334 308 293 264
1110.0 249 240 225 221 217 205 210 220 204 195
1150.0 204 195 191 198 198 192 187 178 160 144
1190.0 141 131 113 97 81 72 80 71 50 59
1230.0 74 86 105 123 134 150 169 199 241 297
1270.0 391 518 694 924 1161 1340 1436 1541 1718 1888
1310.0 1911 1762 1579 1452 1399 1346 1234 1112 994 897
1350.0 842 780 709 653 616 610 636 662 681 707
1390.0 751 802 815 797 789 811 868 961 1090 1233
1430.0 1384 1545 1682 1768 1818 1870 1881 1826 1716 1523
1470.0 1322 1177 1061 939 813 698 597 513 442 380
1510.0 326 293 256 212 184 160 138 122 112 112
1550.0 102 92 98 99 89 85 85 80 80 74
1590.0 62 56 59 67 71 70 65 68 72 76
1630.0 80 88 97 111 117 119 131 145 174 218
1670.0 275 362 481 597 691 742 784 831 853 829
1710.0 772 689 596 513 436 358 298 247 198 159
1750.0 126 94 68 55 50 37 21 14 15 8
1790.0 7 8 0 2 4 3 7 4 0 8
1830.0 21 21 20 27 34 49 61 66 83 100
1870.0 114 132 153 180 226 278 332 400 498 616
1910.0 767 964 1223 1555 1973 2460 2981 3512 3991 4325
1950.0 4494 4522 4412 4149 3693 3041 2304 1654 1174 856
1990.0 648 511 416 341 288 248 207 174 140 112
2030.0 96 82 71 63 60 58 57 42 38 46
2070.0 49 45 38 36 29 22 20 21 25 25
2110.0 19 20 29 30 31 29 25 26 26 28
2150.0 27 26 29 31 27 30 35 31 25 30
2190.0 35 34 34 36 35 36 46 45 42 50
2230.0 51 50 54 49 47 46 40 39 44 46
2270.0 39 35 36 29 29 35 24 18 24 32
2310.0 35 29 29 29 25 21 18 25 27 35
2350.0 37 38 46 51 51 52 59 64 60 52
2390.0 48 51 53 53 52 47 49 65 79 79
2430.0 74 74 75 67 70 66 57 64 70 63
2470.0 52 43 35 35 44 44 42 49 49 49
2510.0 48 41 39 39 41 41 35 38 47 48
2550.0 48 59 72 72 70 67 70 72 80 88
2590.0 79 65 60 67 66 65 59 52 58 63
2630.0 66 69 72 68 57 60 63 60 64 68
2670.0 67 71 80 75 70 77 86 90 96 105
2710.0 111 128 148 159 183 212 219 219 232 251
2750.0 263 271 268 266 271 277 281 295 316 328
2790.0 350 369 382 409 440 479 507 544 621 714
2830.0 824 961 1123 1333 1586 1865 2144 2418 2702 3014
2870.0 3404 3819 4135 4288 4368 4502 4677 4862 4996 5111
2910.0 5242 5358 5490 5681 5973 6374 6766 6933 6940 7076
2950.0 7434 7985 8571 9135 9629 9794 9918 10000 9728 9435
2990.0 8752 7564 6368 5436 4697 4127 3581 2934 2342 1904
3030.0 1613 1405 1251 1136 1056 995 953 933 905 896
3070.0 875 825 789 744 693 631 570 510 463 430
3110.0 395 360 328 309 302 292 278 264 247 247
3150.0 243 226 216 200 179 175 169 152 145 142
3190.0 140 156 153 153 161 147 134 130 127 114
3230.0 109 105 94 95 104 107 99 97 93 85
3270.0 85 93 91 86 107 119 108 92 84 81
3310.0 75 82 96 87 85 71 60 50 51 60
3350.0 48 36 37 50 59 47 51 67 62 60
3390.0 59 50 57 61 46 52 62 57 46 50
3430.0 53 39 35 38 35 45 54 35 24 37
3470.0 50 41 35 48 59 54 52 53 47 37
3510.0 26 24 36 51 39 31 39 20 19 28
3550.0 36 45 48 44 35 41 48 61 62 56
3590.0 61 51 40 45 51 55 56 57 66 73
3630.0 69 77 72 56 49 60 59 62 59 54
3670.0 56 51 54 48 45 63 71 61 47 47
3710.0 45 55 79 78 68 72 70 63 59 68
3750.0 66 46 57 72 69 56 48 56 60 67
3790.0 81 86 82 70 55 63 82 91 96 87
3830.0 66 63 62 72 81
##END=
