##TITLE=1,4-Pentadiene
##JCAMP-DX=4.24
##DATA TYPE=INFRARED SPECTRUM
##ORIGIN=NIST Mass Spectrometry Data Center
##OWNER=NIST Standard Reference Data Program
Collection (C) 2018 copyright by the U.S. Secretary of Commerce
on behalf of the United States of America. All rights reserved.
##CAS REGISTRY NO=591-93-5
##MOLFORM=C 5 H 8
##$NIST SOURCE=MSDC-IR
##SPECTROMETER/DATA SYSTEM=HP-GC/MS/IRD
##STATE=gas
##XUNITS=1/CM
##YUNITS=ABSORBANCE
##XFACTOR=1.0
##YFACTOR=0.000000800
##DELTAX=4.0
##FIRSTX=550.0
##LASTX=3846.0
##FIRSTY=0.001005
##MAXX=3846
##MINX=550
##MAXY=0.008
##MINY=0
##NPOINTS=825
##XYDATA=(X++(Y..Y))
550.0 1256 960 623 765 738 624 755 924 994 1041
590.0 976 1003 1018 890 848 901 949 957 919 1051
630.0 1075 942 999 1038 1024 931 1012 1166 1112 1129
670.0 1061 882 805 754 555 475 546 456 347 452
710.0 480 385 356 267 268 319 172 113 141 87
750.0 145 265 258 173 165 169 131 148 150 168
790.0 237 297 341 299 239 269 360 500 583 561
830.0 609 708 731 775 894 990 1088 1269 1540 1834
870.0 2133 2564 3168 3844 4579 5468 6480 7505 8499 9203
910.0 9632 9820 9963 10000 9645 8885 7927 7058 6269 5595
950.0 5064 4676 4377 4176 4158 4228 4399 4648 4821 4942
990.0 5021 5067 4897 4599 4325 3931 3490 2993 2568 2311
1030.0 2050 1814 1681 1521 1363 1246 1124 1035 957 871
1070.0 802 779 756 738 786 747 693 719 667 655
1110.0 717 705 711 727 667 641 585 570 589 555
1150.0 537 515 493 469 359 293 349 397 336 225
1190.0 267 335 331 336 363 394 351 364 358 301
1230.0 290 289 264 249 278 332 402 467 501 608
1270.0 676 649 722 798 797 756 721 647 529 458
1310.0 493 464 386 385 396 397 390 389 405 392
1350.0 415 463 500 515 508 501 522 588 658 745
1390.0 842 981 1152 1316 1480 1599 1688 1814 1922 1966
1430.0 1967 1922 1804 1676 1586 1448 1287 1129 971 855
1470.0 784 701 601 534 490 440 385 352 375 420
1510.0 452 402 365 379 368 386 382 372 399 412
1550.0 409 423 449 487 489 486 508 539 584 661
1590.0 702 761 912 1066 1280 1614 2090 2650 3254 3825
1630.0 4199 4317 4318 4278 4164 3874 3208 2389 1699 1242
1670.0 949 770 630 533 495 428 325 328 364 314
1710.0 258 226 226 225 221 226 196 185 202 228
1750.0 232 205 205 210 236 239 266 280 266 320
1790.0 363 356 410 493 540 636 786 959 1089 1202
1830.0 1248 1266 1290 1265 1178 1062 903 739 613 509
1870.0 429 390 355 322 288 289 304 262 241 263
1910.0 250 215 230 233 220 266 265 237 253 280
1950.0 287 325 373 399 411 381 344 298 303 321
1990.0 309 304 290 284 265 233 223 221 226 229
2030.0 232 210 208 230 209 202 209 214 201 188
2070.0 218 198 156 173 189 173 150 156 180 207
2110.0 209 199 185 198 205 153 162 152 160 192
2150.0 192 212 198 186 228 250 230 233 242 231
2190.0 246 251 250 241 226 233 211 186 167 149
2230.0 188 207 207 215 208 225 245 234 229 262
2270.0 260 227 207 198 210 219 202 227 263 262
2310.0 255 252 249 241 214 201 236 245 218 229
2350.0 244 208 194 250 277 273 239 244 276 273
2390.0 249 232 243 252 242 208 208 219 219 249
2430.0 252 246 227 144 101 138 177 195 205 248
2470.0 248 256 248 230 244 223 223 204 191 219
2510.0 249 238 219 243 225 224 260 214 175 202
2550.0 195 198 240 235 183 200 213 172 153 208
2590.0 232 215 218 201 183 190 175 162 160 167
2630.0 177 184 228 259 251 219 166 154 189 209
2670.0 182 192 205 176 200 254 265 235 236 267
2710.0 285 282 288 297 296 255 221 243 262 231
2750.0 229 244 220 236 222 199 227 233 251 285
2790.0 315 383 459 496 574 681 758 814 906 1012
2830.0 1112 1188 1232 1262 1289 1323 1321 1373 1454 1523
2870.0 1708 1895 2037 2337 2632 2809 2969 3164 3312 3442
2910.0 3537 3549 3508 3406 3324 3220 3091 2959 2814 2716
2950.0 2681 2643 2631 2725 2961 3261 3551 3815 4041 4237
2990.0 4470 4665 4891 5089 4927 4648 4503 4292 4034 3774
3030.0 3429 3127 2868 2701 2702 2814 3050 3301 3669 4238
3070.0 4865 5489 6011 6161 6067 5901 5663 5492 4993 4129
3110.0 3247 2527 1931 1511 1259 1052 919 838 707 602
3150.0 573 554 504 442 366 304 261 210 290 385
3190.0 300 224 208 160 159 195 226 258 173 96
3230.0 124 150 157 185 219 211 183 201 171 136
3270.0 148 191 219 185 195 170 105 132 156 130
3310.0 144 208 218 202 154 116 196 198 156 168
3350.0 145 119 105 82 108 172 174 159 140 106
3390.0 72 66 99 122 98 130 195 162 171 94
3430.0 95 155 93 119 187 148 115 101 61 119
3470.0 164 137 117 106 127 119 87 115 177 114
3510.0 70 96 116 152 137 107 39 8 23 45
3550.0 80 36 23 69 100 159 165 108 108 89
3590.0 111 170 92 28 98 98 101 173 132 106
3630.0 143 84 33 39 57 120 178 134 31 24
3670.0 65 57 68 116 119 103 94 104 111 62
3710.0 8 72 114 171 230 197 175 88 116 116
3750.0 40 101 62 62 57 0 28 124 103 81
3790.0 44 46 127 104 70 57 48 79 66 43
3830.0 78 77 26 64 146
##END=
