##TITLE=1-Hexene
##JCAMP-DX=4.24
##DATA TYPE=INFRARED SPECTRUM
##ORIGIN=NIST Mass Spectrometry Data Center
##OWNER=NIST Standard Reference Data Program
Collection (C) 2018 copyright by the U.S. Secretary of Commerce
on behalf of the United States of America. All rights reserved.
##CAS REGISTRY NO=592-41-6
##MOLFORM=C 6 H 12
##$NIST SOURCE=MSDC-IR
##SPECTROMETER/DATA SYSTEM=HP-GC/MS/IRD
##STATE=gas
##XUNITS=1/CM
##YUNITS=ABSORBANCE
##XFACTOR=1.0
##YFACTOR=0.000003900
##DELTAX=4.0
##FIRSTX=550.0
##LASTX=3846.0
##FIRSTY=0.000488
##MAXX=3846
##MINX=550
##MAXY=0.039
##MINY=0
##NPOINTS=825
##XYDATA=(X++(Y..Y))
550.0 125 67 9 36 52 5 30 51 11 11
590.0 23 57 97 115 149 194 231 251 285 320
630.0 314 288 277 258 208 174 168 150 104 61
670.0 47 40 33 21 36 50 50 38 24 40
710.0 43 41 48 61 95 119 122 137 161 161
750.0 152 142 130 114 92 76 72 71 60 63
790.0 70 59 62 67 71 76 82 90 107 110
830.0 108 120 131 146 171 180 196 231 269 302
870.0 347 431 541 678 848 1064 1332 1658 2002 2300
910.0 2479 2538 2530 2343 2009 1683 1414 1203 1024 878
950.0 775 709 670 661 674 709 777 884 990 1072
990.0 1119 1119 1085 1008 874 740 641 551 481 435
1030.0 389 330 290 273 230 200 180 145 132 120
1070.0 107 99 92 94 91 89 101 110 103 102
1110.0 117 112 97 95 95 111 113 101 95 85
1150.0 71 67 63 52 39 39 44 32 21 22
1190.0 26 32 35 38 50 63 70 71 69 75
1230.0 74 71 84 100 101 95 97 97 90 85
1270.0 96 104 116 137 157 172 184 197 202 194
1310.0 191 198 199 197 213 238 246 254 264 268
1350.0 280 276 268 271 288 329 374 412 435 447
1390.0 468 465 435 414 416 434 458 483 543 625
1430.0 701 785 884 985 1073 1147 1182 1181 1151 1079
1470.0 972 855 740 627 515 422 347 282 225 179
1510.0 142 125 116 108 101 99 100 96 92 92
1550.0 87 84 79 65 62 65 66 69 72 83
1590.0 102 117 145 177 209 259 337 443 584 753
1630.0 928 1060 1109 1100 1061 954 718 478 321 226
1670.0 170 133 107 88 76 62 49 42 36 31
1710.0 27 26 22 17 11 12 5 2 8 8
1750.0 10 10 10 15 18 19 18 13 14 22
1790.0 31 45 53 72 104 141 184 225 257 261
1830.0 260 254 223 175 133 103 80 59 46 35
1870.0 27 22 13 11 9 11 15 13 14 15
1910.0 12 7 3 4 5 5 5 7 5 7
1950.0 14 22 24 24 27 31 34 32 28 28
1990.0 26 21 20 10 7 9 4 0 3 12
2030.0 20 16 18 14 12 17 15 10 11 14
2070.0 14 13 14 13 12 13 12 7 3 4
2110.0 4 5 2 0 4 8 11 15 17 14
2150.0 7 9 11 7 11 17 15 12 16 23
2190.0 24 23 22 15 14 20 18 13 12 15
2230.0 14 16 20 20 18 14 17 14 13 12
2270.0 7 14 11 4 0 1 5 10 13 12
2310.0 12 9 5 6 12 18 20 14 9 11
2350.0 16 14 8 7 15 19 17 16 16 17
2390.0 15 14 15 16 8 8 11 13 16 9
2430.0 8 13 18 20 17 9 6 12 11 12
2470.0 15 15 12 9 6 7 9 10 12 12
2510.0 14 18 20 24 22 15 16 22 22 27
2550.0 29 27 33 32 32 40 43 38 35 37
2590.0 40 41 42 52 54 50 49 53 59 52
2630.0 55 67 73 74 71 75 86 89 89 89
2670.0 94 99 103 105 101 106 109 105 101 103
2710.0 102 103 108 111 115 125 138 154 167 179
2750.0 185 184 188 195 202 205 208 224 239 259
2790.0 281 304 328 362 409 467 536 608 707 837
2830.0 995 1201 1443 1705 2004 2357 2717 3056 3377 3680
2870.0 3971 4259 4421 4437 4442 4507 4601 4707 4951 5390
2910.0 6005 6746 7536 8330 9067 9641 9962 10000 9821 9527
2950.0 9219 8950 8770 8662 8377 7909 7436 6822 5953 4975
2990.0 4139 3523 3054 2664 2325 2042 1812 1584 1371 1205
3030.0 1084 1003 955 934 941 966 1006 1075 1171 1295
3070.0 1470 1685 1869 1945 1891 1789 1672 1419 1087 818
3110.0 636 513 421 363 317 281 258 233 213 192
3150.0 168 165 165 159 157 155 139 119 114 109
3190.0 101 100 90 93 101 90 82 65 62 64
3230.0 62 55 49 54 58 53 38 36 37 35
3270.0 39 37 29 28 31 33 36 29 23 18
3310.0 15 21 20 16 27 32 26 16 10 17
3350.0 29 25 25 27 23 18 19 23 15 12
3390.0 21 28 29 19 6 6 17 26 20 21
3430.0 18 15 22 24 25 28 32 27 21 23
3470.0 24 14 9 13 15 11 11 18 13 4
3510.0 6 13 22 26 21 17 20 25 26 13
3550.0 0 2 20 27 28 29 27 30 26 20
3590.0 24 23 17 9 13 17 25 31 17 12
3630.0 17 27 33 34 35 35 43 52 47 44
3670.0 28 21 29 28 29 33 37 32 27 31
3710.0 23 23 31 33 29 24 26 23 24 24
3750.0 19 26 33 33 29 39 43 32 24 23
3790.0 29 35 31 33 28 23 28 32 37 29
3830.0 36 47 60 65 36
##END=
