##TITLE=Glycinamide
##JCAMP-DX=4.24
##DATA TYPE=INFRARED SPECTRUM
##CLASS=COBLENTZ III
##ORIGIN=SOUTHERN RESEARCH INSTITUTE
##OWNER=Copyright (C) 1987 by the Coblentz Society
Collection (C) 2018 copyright by the U.S. Secretary of Commerce
on behalf of the United States of America. All rights reserved.
##DATE=1956/12/14
##NAMES=2-aminoacetamide
##CAS REGISTRY NO=598-41-4
##MOLFORM=C2 H6 N2 O
##SOURCE REFERENCE=COBLENTZ NO. 8351
##$NIST SOURCE=COBLENTZ
##$NIST IMAGE=cob8351
##SPECTROMETER/DATA SYSTEM=PERKIN-ELMER 21 (GRATING)
##INSTRUMENT PARAMETERS=FILTER CHANGE ABOUT 1080 CM^-^1
##STATE=SOLID (0.4 mg / 650 mg KBr DISC)
##SAMPLING PROCEDURE=TRANSMISSION
##RESOLUTION=2
##DATA PROCESSING=DIGITIZED BY COBLENTZ SOCIETY (BATCH II) FROM HARD COPY (ADJUSTED \addcm-1\10-8-2\)
##XUNITS=1/CM
##YUNITS=TRANSMITTANCE
##XFACTOR=1.0
##YFACTOR=1
##DELTAX=1.005738
##FIRSTX=613.587
##LASTX=4014.99
##FIRSTY=0.8554
##MAXX=4014.99
##MINX=613.587
##MAXY=0.919
##MINY=0.1513
##NPOINTS=3383
##XYDATA=(X++(Y..Y))
613.586667 0.8554 0.8554 0.8556 0.8558 0.8560
618.615359 0.8562 0.8565 0.8567 0.8569 0.8570
623.644052 0.8572 0.8574 0.8575 0.8577 0.8578
628.672744 0.8579 0.8581 0.8582 0.8584 0.8586
633.701437 0.8587 0.8589 0.8590 0.8592 0.8593
638.730129 0.8595 0.8598 0.8601 0.8605 0.8608
643.758822 0.8610 0.8613 0.8617 0.8620 0.8624
648.787514 0.8628 0.8631 0.8634 0.8638 0.8641
653.816207 0.8645 0.8649 0.8652 0.8656 0.8660
658.844899 0.8664 0.8668 0.8672 0.8676 0.8679
663.873591 0.8682 0.8683 0.8684 0.8686 0.8687
668.902284 0.8688 0.8679 0.8691 0.8692 0.8693
673.930976 0.8693 0.8693 0.8694 0.8694 0.8694
678.959669 0.8695 0.8695 0.8696 0.8696 0.8696
683.988361 0.8694 0.8692 0.8691 0.8690 0.8688
689.017054 0.8686 0.8685 0.8683 0.8680 0.8678
694.045746 0.8675 0.8673 0.8670 0.8668 0.8666
699.074439 0.8663 0.8661 0.8658 0.8656 0.8654
704.103131 0.8651 0.8649 0.8646 0.8644 0.8642
709.131824 0.8639 0.8637 0.8633 0.8628 0.8624
714.160516 0.8620 0.8616 0.8611 0.8607 0.8603
719.189209 0.8598 0.8594 0.8590 0.8585 0.8581
724.217901 0.8578 0.8573 0.8568 0.8563 0.8558
729.246594 0.8553 0.8548 0.8543 0.8538 0.8533
734.275286 0.8528 0.8523 0.8518 0.8514 0.8508
739.303979 0.8502 0.8495 0.8489 0.8482 0.8476
744.332671 0.8470 0.8464 0.8457 0.8451 0.8444
749.361364 0.8438 0.8431 0.8424 0.8415 0.8407
754.390056 0.8398 0.8389 0.8381 0.8372 0.8363
759.418749 0.8354 0.8346 0.8337 0.8328 0.8319
764.447441 0.8311 0.8302 0.8294 0.8285 0.8275
769.476134 0.8266 0.8257 0.8248 0.8238 0.8229
774.504826 0.8220 0.8211 0.8202 0.8192 0.8183
779.533519 0.8174 0.8164 0.8154 0.8143 0.8132
784.562211 0.8121 0.8110 0.8099 0.8086 0.8068
789.590904 0.8050 0.8032 0.8015 0.7997 0.7979
794.619596 0.7962 0.7944 0.7926 0.7909 0.7890
799.648289 0.7872 0.7854 0.7836 0.7817 0.7799
804.676981 0.7778 0.7756 0.7734 0.7711 0.7686
809.705673 0.7656 0.7625 0.7597 0.7573 0.7553
814.734366 0.7532 0.7512 0.7500 0.7493 0.7491
819.763058 0.7495 0.7499 0.7510 0.7527 0.7547
824.791751 0.7567 0.7586 0.7606 0.7626 0.7645
829.820443 0.7665 0.7687 0.7709 0.7731 0.7753
834.849136 0.7776 0.7800 0.7822 0.7844 0.7865
839.877828 0.7887 0.7907 0.7927 0.7947 0.7966
844.906521 0.7986 0.8009 0.8030 0.8052 0.8073
849.935213 0.8095 0.8106 0.8105 0.8104 0.8103
854.963906 0.8129 0.8106 0.8099 0.8097 0.8094
859.992598 0.8091 0.8085 0.8078 0.8071 0.8064
865.021291 0.8057 0.8047 0.8033 0.8019 0.8005
870.049983 0.7989 0.7974 0.7959 0.7945 0.7930
875.078676 0.7915 0.7898 0.7882 0.7866 0.7850
880.107368 0.7834 0.7819 0.7804 0.7790 0.7775
885.136061 0.7761 0.7747 0.7735 0.7723 0.7711
890.164753 0.7699 0.7687 0.7675 0.7663 0.7652
895.193446 0.7645 0.7642 0.7640 0.7637 0.7634
900.222138 0.7631 0.7628 0.7626 0.7625 0.7624
905.250831 0.7615 0.7623 0.7623 0.7623 0.7623
910.279523 0.7623 0.7622 0.7622 0.7623 0.7625
915.308216 0.7627 0.7629 0.7633 0.7638 0.7643
920.336908 0.7648 0.7653 0.7658 0.7667 0.7678
925.365601 0.7688 0.7699 0.7713 0.7732 0.7753
930.394293 0.7773 0.7794 0.7812 0.7828 0.7843
935.422986 0.7858 0.7874 0.7890 0.7907 0.7923
940.451678 0.7938 0.7952 0.7965 0.7979 0.7992
945.480370 0.8005 0.8016 0.8026 0.8034 0.8043
950.509063 0.8052 0.8060 0.8069 0.8078 0.8086
955.537755 0.8094 0.8100 0.8106 0.8112 0.8118
960.566448 0.8123 0.8127 0.8131 0.8135 0.8140
965.595140 0.8144 0.8148 0.8153 0.8157 0.8161
970.623833 0.8165 0.8168 0.8170 0.8171 0.8173
975.652525 0.8175 0.8177 0.8178 0.8180 0.8181
980.681218 0.8182 0.8183 0.8183 0.8183 0.8184
985.709910 0.8184 0.8185 0.8185 0.8185 0.8186
990.738603 0.8186 0.8186 0.8187 0.8187 0.8187
995.767295 0.8187 0.8188 0.8188 0.8189 0.8189
1000.795988 0.8189 0.8190 0.8190 0.8190 0.8191
1005.824680 0.8191 0.8192 0.8194 0.8196 0.8199
1010.853373 0.8197 0.8186 0.8206 0.8208 0.8211
1015.882065 0.8214 0.8216 0.8219 0.8222 0.8226
1020.910758 0.8229 0.8233 0.8236 0.8240 0.8243
1025.939450 0.8247 0.8250 0.8254 0.8257 0.8260
1030.968143 0.8263 0.8266 0.8268 0.8271 0.8274
1035.996835 0.8277 0.8280 0.8283 0.8287 0.8291
1041.025528 0.8295 0.8297 0.8298 0.8298 0.8299
1046.054220 0.8299 0.8298 0.8295 0.8290 0.8285
1051.082913 0.8279 0.8273 0.8263 0.8251 0.8240
1056.111605 0.8227 0.8215 0.8204 0.8192 0.8179
1061.140298 0.8162 0.8144 0.8126 0.8106 0.8086
1066.168990 0.8060 0.8002 0.7899 0.7796 0.7711
1071.197683 0.7712 0.7826 0.8129 0.8430 0.8691
1076.226375 0.8669 0.8473 0.8236 0.8006 0.7937
1081.255067 0.7934 0.7935 0.7935 0.7932 0.7930
1086.283760 0.7929 0.7928 0.7929 0.7929 0.7929
1091.312452 0.7930 0.7930 0.7931 0.7931 0.7931
1096.341145 0.7932 0.7933 0.7934 0.7935 0.7936
1101.369837 0.7937 0.7938 0.7940 0.7943 0.7945
1106.398530 0.7948 0.7950 0.7953 0.7957 0.7962
1111.427222 0.7966 0.7971 0.7976 0.7981 0.7986
1116.455915 0.7991 0.7996 0.8001 0.8006 0.8011
1121.484607 0.8018 0.8024 0.8031 0.8037 0.8044
1126.513300 0.8050 0.8056 0.8062 0.8066 0.8070
1131.541992 0.8074 0.8078 0.8081 0.8082 0.8081
1136.570685 0.8080 0.8079 0.8078 0.8077 0.8071
1141.599377 0.8063 0.8056 0.8049 0.8043 0.8033
1146.628070 0.8022 0.8011 0.8001 0.7990 0.7979
1151.656762 0.7968 0.7958 0.7948 0.7937 0.7927
1156.685455 0.7916 0.7906 0.7895 0.7889 0.7887
1161.714147 0.7885 0.7884 0.7884 0.7888 0.7892
1166.742840 0.7895 0.7901 0.7904 0.7907 0.7913
1171.771532 0.7925 0.7937 0.7950 0.7963 0.7980
1176.800225 0.7998 0.8016 0.8035 0.8055 0.8075
1181.828917 0.8095 0.8116 0.8137 0.8159 0.8180
1186.857610 0.8201 0.8221 0.8240 0.8260 0.8279
1191.886302 0.8298 0.8315 0.8324 0.8329 0.8332
1196.914995 0.8333 0.8334 0.8334 0.8334 0.8333
1201.943687 0.8333 0.8333 0.8333 0.8333 0.8332
1206.972380 0.8330 0.8327 0.8329 0.8322 0.8316
1212.001072 0.8312 0.8308 0.8303 0.8298 0.8293
1217.029765 0.8288 0.8282 0.8276 0.8269 0.8261
1222.058457 0.8253 0.8246 0.8239 0.8232 0.8225
1227.087149 0.8218 0.8209 0.8198 0.8187 0.8177
1232.115842 0.8166 0.8155 0.8145 0.8134 0.8123
1237.144534 0.8112 0.8101 0.8089 0.8077 0.8065
1242.173227 0.8053 0.8041 0.8029 0.8012 0.7994
1247.201919 0.7975 0.7957 0.7939 0.7920 0.7901
1252.230612 0.7880 0.7859 0.7838 0.7817 0.7796
1257.259304 0.7775 0.7753 0.7731 0.7709 0.7687
1262.287997 0.7666 0.7643 0.7616 0.7588 0.7561
1267.316689 0.7533 0.7505 0.7476 0.7444 0.7413
1272.345382 0.7381 0.7350 0.7314 0.7271 0.7225
1277.374074 0.7179 0.7136 0.7095 0.7054 0.7014
1282.402767 0.6969 0.6920 0.6871 0.6819 0.6764
1287.431459 0.6706 0.6647 0.6577 0.6476 0.6356
1292.460152 0.6229 0.6123 0.6045 0.5986 0.5935
1297.488844 0.5883 0.5828 0.5752 0.5660 0.5583
1302.517537 0.5541 0.5527 0.5523 0.5521 0.5513
1307.546229 0.5517 0.5527 0.5532 0.5540 0.5550
1312.574922 0.5561 0.5573 0.5586 0.5603 0.5644
1317.603614 0.5708 0.5780 0.5852 0.5924 0.5996
1322.632307 0.6067 0.6139 0.6211 0.6282 0.6354
1327.660999 0.6425 0.6487 0.6533 0.6572 0.6611
1332.689692 0.6649 0.6686 0.6721 0.6757 0.6792
1337.718384 0.6828 0.6860 0.6886 0.6905 0.6913
1342.747077 0.6918 0.6921 0.6924 0.6926 0.6924
1347.775769 0.6923 0.6922 0.6921 0.6919 0.6917
1352.804462 0.6919 0.6918 0.6917 0.6915 0.6914
1357.833154 0.6913 0.6912 0.6913 0.6915 0.6917
1362.861846 0.6919 0.6921 0.6924 0.6928 0.6932
1367.890539 0.6936 0.6940 0.6944 0.6950 0.6955
1372.919231 0.6961 0.6965 0.6969 0.6969 0.6968
1377.947924 0.6966 0.6962 0.6956 0.6945 0.6930
1382.976616 0.6915 0.6897 0.6876 0.6853 0.6825
1388.005309 0.6797 0.6765 0.6727 0.6689 0.6651
1393.034001 0.6609 0.6568 0.6532 0.6497 0.6461
1398.062694 0.6419 0.6376 0.6331 0.6259 0.6210
1403.091386 0.6181 0.6173 0.6165 0.6157 0.6149
1408.120079 0.6141 0.6131 0.6119 0.6111 0.6104
1413.148771 0.6097 0.6090 0.6084 0.6080 0.6077
1418.177464 0.6073 0.6073 0.6073 0.6073 0.6074
1423.206156 0.6076 0.6079 0.6081 0.6084 0.6087
1428.234849 0.6096 0.6107 0.6118 0.6129 0.6142
1433.263541 0.6158 0.6175 0.6200 0.6234 0.6270
1438.292234 0.6300 0.6327 0.6352 0.6376 0.6396
1443.320926 0.6408 0.6412 0.6413 0.6415 0.6415
1448.349619 0.6414 0.6413 0.6412 0.6411 0.6410
1453.378311 0.6410 0.6409 0.6407 0.6406 0.6405
1458.407004 0.6403 0.6401 0.6399 0.6396 0.6394
1463.435696 0.6391 0.6389 0.6387 0.6385 0.6385
1468.464389 0.6385 0.6384 0.6384 0.6384 0.6388
1473.493081 0.6396 0.6404 0.6413 0.6423 0.6434
1478.521774 0.6445 0.6459 0.6479 0.6504 0.6532
1483.550466 0.6561 0.6591 0.6622 0.6652 0.6684
1488.579159 0.6718 0.6753 0.6788 0.6822 0.6852
1493.607851 0.6883 0.6912 0.6940 0.6966 0.6983
1498.636544 0.6995 0.7002 0.7006 0.7011 0.7014
1503.665236 0.7016 0.7016 0.7017 0.7003 0.6999
1508.693928 0.7016 0.7014 0.7012 0.7010 0.7006
1513.722621 0.7003 0.6999 0.6996 0.6992 0.6986
1518.751313 0.6979 0.6972 0.6966 0.6961 0.6957
1523.780006 0.6954 0.6950 0.6947 0.6943 0.6940
1528.808698 0.6937 0.6933 0.6929 0.6917 0.6890
1533.837391 0.6862 0.6832 0.6785 0.6711 0.6630
1538.866083 0.6545 0.6457 0.6392 0.6355 0.6340
1543.894776 0.6331 0.6321 0.6313 0.6305 0.6297
1548.923468 0.6291 0.6285 0.6225 0.5999 0.5810
1553.952161 0.5666 0.5599 0.5530 0.5457 0.5385
1558.980853 0.5326 0.5280 0.5253 0.5226 0.5200
1564.009546 0.5180 0.5163 0.5143 0.5107 0.5018
1569.038238 0.4792 0.4715 0.4652 0.4604 0.4558
1574.066931 0.4522 0.4487 0.4452 0.4419 0.4388
1579.095623 0.4357 0.4326 0.4302 0.4282 0.4263
1584.124316 0.4243 0.4221 0.4196 0.4171 0.4146
1589.153008 0.4121 0.4096 0.4061 0.4026 0.3991
1594.181701 0.3961 0.3932 0.3903 0.3876 0.3863
1599.210393 0.3851 0.3839 0.3827 0.3815 0.3807
1604.239086 0.3801 0.3795 0.3790 0.3784 0.3778
1609.267778 0.3772 0.3767 0.3788 0.3763 0.3755
1614.296471 0.3753 0.3751 0.3749 0.3747 0.3744
1619.325163 0.3742 0.3740 0.3737 0.3735 0.3733
1624.353856 0.3731 0.3729 0.3727 0.3725 0.3723
1629.382548 0.3712 0.3686 0.3639 0.3565 0.3495
1634.411241 0.3446 0.3404 0.3363 0.3336 0.3314
1639.439933 0.3292 0.3217 0.3123 0.3013 0.2832
1644.468625 0.2668 0.2529 0.2281 0.2083 0.1950
1649.497318 0.1807 0.1692 0.1631 0.1593 0.1561
1654.526010 0.1536 0.1523 0.1517 0.1514 0.1513
1659.554703 0.1513 0.1514 0.1519 0.1519 0.1517
1664.583395 0.1519 0.1520 0.1523 0.1526 0.1532
1669.612088 0.1537 0.1543 0.1552 0.1567 0.1588
1674.640780 0.1613 0.1644 0.1688 0.1749 0.1817
1679.669473 0.1884 0.1943 0.1996 0.2057 0.2140
1684.698165 0.2212 0.2275 0.2349 0.2451 0.2577
1689.726858 0.2711 0.2846 0.2993 0.3125 0.3240
1694.755550 0.3315 0.3375 0.3450 0.3572 0.3703
1699.784243 0.3817 0.3949 0.4217 0.4579 0.4734
1704.812935 0.4814 0.4937 0.5113 0.5312 0.5483
1709.841628 0.5946 0.6207 0.6388 0.6590 0.6746
1714.870320 0.6853 0.6941 0.7025 0.7151 0.7316
1719.899013 0.7484 0.7601 0.7705 0.7807 0.7907
1724.927705 0.8005 0.8073 0.8118 0.8159 0.8199
1729.956398 0.8243 0.8290 0.8338 0.8372 0.8396
1734.985090 0.8420 0.8443 0.8465 0.8484 0.8504
1740.013783 0.8523 0.8543 0.8561 0.8577 0.8593
1745.042475 0.8608 0.8627 0.8648 0.8669 0.8690
1750.071168 0.8711 0.8731 0.8752 0.8767 0.8779
1755.099860 0.8791 0.8803 0.8816 0.8828 0.8841
1760.128553 0.8855 0.8868 0.8882 0.8895 0.8905
1765.157245 0.8915 0.8925 0.8935 0.8942 0.8947
1770.185938 0.8952 0.8957 0.8962 0.8968 0.8973
1775.214630 0.8978 0.8983 0.8988 0.8993 0.8999
1780.243322 0.9004 0.9009 0.9014 0.9019 0.9023
1785.272015 0.9027 0.9031 0.9035 0.9039 0.9043
1790.300707 0.9047 0.9051 0.9055 0.9059 0.9063
1795.329400 0.9066 0.9069 0.9071 0.9074 0.9076
1800.358092 0.9079 0.9082 0.9084 0.9086 0.9088
1805.386785 0.9090 0.9092 0.9095 0.9097 0.9099
1810.415477 0.9101 0.9103 0.9106 0.9108 0.9110
1815.444170 0.9113 0.9115 0.9124 0.9139 0.9123
1820.472862 0.9125 0.9127 0.9130 0.9132 0.9134
1825.501555 0.9136 0.9139 0.9141 0.9143 0.9145
1830.530247 0.9147 0.9148 0.9150 0.9153 0.9156
1835.558940 0.9160 0.9164 0.9168 0.9171 0.9175
1840.587632 0.9179 0.9183 0.9187 0.9189 0.9190
1845.616325 0.9190 0.9189 0.9187 0.9185 0.9183
1850.645017 0.9182 0.9180 0.9179 0.9177 0.9176
1855.673710 0.9175 0.9174 0.9174 0.9175 0.9174
1860.702402 0.9174 0.9173 0.9173 0.9172 0.9172
1865.731095 0.9172 0.9172 0.9172 0.9172 0.9172
1870.759787 0.9172 0.9172 0.9172 0.9171 0.9171
1875.788480 0.9171 0.9170 0.9170 0.9169 0.9169
1880.817172 0.9169 0.9168 0.9168 0.9168 0.9167
1885.845865 0.9166 0.9166 0.9165 0.9165 0.9164
1890.874557 0.9163 0.9163 0.9162 0.9162 0.9161
1895.903250 0.9160 0.9159 0.9158 0.9157 0.9156
1900.931942 0.9155 0.9154 0.9153 0.9152 0.9151
1905.960635 0.9150 0.9149 0.9148 0.9147 0.9146
1910.989327 0.9144 0.9143 0.9142 0.9141 0.9140
1916.018020 0.9139 0.9137 0.9136 0.9135 0.9133
1921.046712 0.9132 0.9131 0.9130 0.9128 0.9127
1926.075404 0.9126 0.9124 0.9123 0.9122 0.9120
1931.104097 0.9119 0.9118 0.9117 0.9115 0.9114
1936.132789 0.9112 0.9111 0.9110 0.9108 0.9107
1941.161482 0.9106 0.9104 0.9103 0.9102 0.9100
1946.190174 0.9099 0.9097 0.9096 0.9095 0.9093
1951.218867 0.9092 0.9090 0.9089 0.9088 0.9086
1956.247559 0.9085 0.9084 0.9082 0.9081 0.9079
1961.276252 0.9078 0.9077 0.9075 0.9073 0.9072
1966.304944 0.9070 0.9068 0.9066 0.9065 0.9063
1971.333637 0.9061 0.9059 0.9058 0.9056 0.9054
1976.362329 0.9053 0.9051 0.9049 0.9047 0.9046
1981.391022 0.9044 0.9042 0.9040 0.9039 0.9037
1986.419714 0.9035 0.9033 0.9032 0.9030 0.9028
1991.448407 0.9026 0.9024 0.9022 0.9021 0.9019
1996.477099 0.9017 0.9015 0.9013 0.9012 0.9009
2001.505792 0.9007 0.9005 0.9003 0.9001 0.8999
2006.534484 0.8997 0.8994 0.8992 0.8990 0.8988
2011.563177 0.8986 0.8984 0.8982 0.8980 0.8977
2016.591869 0.8975 0.8973 0.8971 0.8969 0.8967
2021.620562 0.8965 0.8964 0.8962 0.8960 0.8958
2026.649254 0.8956 0.8955 0.8953 0.8951 0.8949
2031.677947 0.8947 0.8946 0.8944 0.8942 0.8940
2036.706639 0.8938 0.8937 0.8935 0.8933 0.8931
2041.735332 0.8929 0.8927 0.8924 0.8922 0.8920
2046.764024 0.8918 0.8916 0.8914 0.8912 0.8909
2051.792717 0.8907 0.8905 0.8903 0.8901 0.8899
2056.821409 0.8898 0.8898 0.8898 0.8897 0.8897
2061.850101 0.8896 0.8896 0.8895 0.8895 0.8894
2066.878794 0.8894 0.8893 0.8893 0.8892 0.8892
2071.907486 0.8891 0.8891 0.8890 0.8890 0.8890
2076.936179 0.8890 0.8890 0.8890 0.8891 0.8891
2081.964871 0.8892 0.8892 0.8892 0.8893 0.8893
2086.993564 0.8893 0.8893 0.8893 0.8893 0.8893
2092.022256 0.8893 0.8893 0.8893 0.8893 0.8893
2097.050949 0.8893 0.8893 0.8893 0.8893 0.8893
2102.079641 0.8893 0.8893 0.8893 0.8894 0.8894
2107.108334 0.8894 0.8894 0.8894 0.8893 0.8892
2112.137026 0.8890 0.8889 0.8888 0.8887 0.8885
2117.165719 0.8884 0.8883 0.8882 0.8880 0.8879
2122.194411 0.8878 0.8877 0.8875 0.8874 0.8873
2127.223104 0.8872 0.8870 0.8869 0.8868 0.8867
2132.251796 0.8866 0.8866 0.8866 0.8867 0.8867
2137.280489 0.8867 0.8868 0.8868 0.8869 0.8869
2142.309181 0.8869 0.8870 0.8870 0.8870 0.8871
2147.337874 0.8871 0.8872 0.8872 0.8872 0.8873
2152.366566 0.8873 0.8873 0.8874 0.8875 0.8875
2157.395259 0.8876 0.8877 0.8877 0.8878 0.8879
2162.423951 0.8879 0.8880 0.8881 0.8881 0.8882
2167.452644 0.8883 0.8882 0.8881 0.8880 0.8880
2172.481336 0.8879 0.8878 0.8877 0.8876 0.8876
2177.510029 0.8875 0.8874 0.8873 0.8873 0.8872
2182.538721 0.8871 0.8870 0.8869 0.8869 0.8868
2187.567414 0.8867 0.8866 0.8865 0.8863 0.8862
2192.596106 0.8860 0.8858 0.8857 0.8855 0.8854
2197.624799 0.8852 0.8851 0.8849 0.8847 0.8846
2202.653491 0.8844 0.8843 0.8841 0.8839 0.8837
2207.682183 0.8835 0.8833 0.8830 0.8828 0.8826
2212.710876 0.8824 0.8821 0.8819 0.8817 0.8815
2217.739568 0.8812 0.8810 0.8808 0.8806 0.8803
2222.768261 0.8801 0.8799 0.8798 0.8796 0.8794
2227.796953 0.8793 0.8791 0.8789 0.8788 0.8786
2232.825646 0.8784 0.8783 0.8781 0.8779 0.8778
2237.854338 0.8777 0.8777 0.8776 0.8776 0.8775
2242.883031 0.8775 0.8775 0.8774 0.8774 0.8772
2247.911723 0.8769 0.8766 0.8763 0.8760 0.8758
2252.940416 0.8755 0.8752 0.8749 0.8746 0.8744
2257.969108 0.8743 0.8742 0.8740 0.8739 0.8738
2262.997801 0.8736 0.8735 0.8732 0.8730 0.8727
2268.026493 0.8725 0.8723 0.8720 0.8718 0.8716
2273.055186 0.8713 0.8710 0.8707 0.8704 0.8701
2278.083878 0.8699 0.8696 0.8693 0.8690 0.8687
2283.112571 0.8684 0.8681 0.8679 0.8674 0.8668
2288.141263 0.8663 0.8657 0.8652 0.8646 0.8640
2293.169956 0.8634 0.8629 0.8623 0.8618 0.8612
2298.198648 0.8605 0.8597 0.8588 0.8580 0.8572
2303.227341 0.8563 0.8555 0.8547 0.8540 0.8535
2308.256033 0.8529 0.8524 0.8518 0.8513 0.8507
2313.284726 0.8502 0.8496 0.8491 0.8485 0.8482
2318.313418 0.8480 0.8478 0.8476 0.8474 0.8473
2323.342111 0.8471 0.8469 0.8467 0.8466 0.8466
2328.370803 0.8465 0.8465 0.8464 0.8464 0.8466
2333.399496 0.8469 0.8472 0.8475 0.8478 0.8481
2338.428188 0.8484 0.8488 0.8491 0.8493 0.8495
2343.456880 0.8496 0.8498 0.8500 0.8502 0.8503
2348.485573 0.8504 0.8504 0.8505 0.8506 0.8507
2353.514265 0.8507 0.8508 0.8509 0.8509 0.8510
2358.542958 0.8512 0.8513 0.8514 0.8515 0.8517
2363.571650 0.8518 0.8519 0.8520 0.8522 0.8523
2368.600343 0.8524 0.8525 0.8527 0.8528 0.8529
2373.629035 0.8530 0.8531 0.8532 0.8532 0.8533
2378.657728 0.8532 0.8530 0.8527 0.8524 0.8521
2383.686420 0.8519 0.8516 0.8513 0.8510 0.8507
2388.715113 0.8504 0.8501 0.8499 0.8496 0.8492
2393.743805 0.8489 0.8485 0.8481 0.8478 0.8474
2398.772498 0.8471 0.8467 0.8463 0.8460 0.8456
2403.801190 0.8453 0.8449 0.8445 0.8442 0.8438
2408.829883 0.8435 0.8431 0.8427 0.8424 0.8420
2413.858575 0.8417 0.8413 0.8409 0.8405 0.8402
2418.887268 0.8398 0.8395 0.8391 0.8388 0.8384
2423.915960 0.8381 0.8380 0.8379 0.8379 0.8378
2428.944653 0.8378 0.8378 0.8377 0.8377 0.8376
2433.973345 0.8376 0.8375 0.8374 0.8373 0.8372
2439.002038 0.8371 0.8370 0.8369 0.8368 0.8367
2444.030730 0.8366 0.8365 0.8363 0.8361 0.8359
2449.059423 0.8357 0.8355 0.8353 0.8351 0.8349
2454.088115 0.8347 0.8345 0.8343 0.8341 0.8339
2459.116808 0.8337 0.8335 0.8333 0.8331 0.8329
2464.145500 0.8327 0.8325 0.8323 0.8321 0.8319
2469.174193 0.8317 0.8315 0.8313 0.8311 0.8309
2474.202885 0.8307 0.8305 0.8304 0.8302 0.8300
2479.231577 0.8298 0.8296 0.8294 0.8292 0.8290
2484.260270 0.8288 0.8286 0.8284 0.8282 0.8280
2489.288962 0.8278 0.8276 0.8274 0.8272 0.8270
2494.317655 0.8268 0.8266 0.8264 0.8262 0.8260
2499.346347 0.8258 0.8256 0.8254 0.8252 0.8250
2504.375040 0.8248 0.8246 0.8244 0.8241 0.8239
2509.403732 0.8237 0.8235 0.8233 0.8230 0.8227
2514.432425 0.8225 0.8223 0.8221 0.8218 0.8216
2519.461117 0.8213 0.8210 0.8207 0.8204 0.8201
2524.489810 0.8198 0.8195 0.8193 0.8190 0.8187
2529.518502 0.8184 0.8181 0.8178 0.8175 0.8172
2534.547195 0.8169 0.8166 0.8163 0.8160 0.8157
2539.575887 0.8154 0.8151 0.8148 0.8145 0.8142
2544.604580 0.8138 0.8135 0.8132 0.8129 0.8126
2549.633272 0.8123 0.8120 0.8117 0.8113 0.8110
2554.661965 0.8106 0.8103 0.8099 0.8095 0.8092
2559.690657 0.8088 0.8085 0.8081 0.8078 0.8074
2564.719350 0.8070 0.8067 0.8063 0.8060 0.8056
2569.748042 0.8053 0.8049 0.8046 0.8044 0.8041
2574.776735 0.8038 0.8035 0.8033 0.8030 0.8025
2579.805427 0.8020 0.8016 0.8011 0.8007 0.8002
2584.834120 0.7998 0.7993 0.7988 0.7984 0.7979
2589.862812 0.7975 0.7973 0.7971 0.7970 0.7968
2594.891505 0.7967 0.7965 0.7964 0.7963 0.7961
2599.920197 0.7960 0.7958 0.7957 0.7955 0.7956
2604.948890 0.7957 0.7958 0.7958 0.7959 0.7960
2609.977582 0.7961 0.7961 0.7960 0.7959 0.7958
2615.006275 0.7957 0.7956 0.7956 0.7955 0.7954
2620.034967 0.7953 0.7952 0.7951 0.7949 0.7948
2625.063659 0.7946 0.7945 0.7944 0.7942 0.7941
2630.092352 0.7939 0.7938 0.7936 0.7935 0.7933
2635.121044 0.7931 0.7929 0.7927 0.7925 0.7923
2640.149737 0.7921 0.7919 0.7917 0.7915 0.7914
2645.178429 0.7912 0.7910 0.7908 0.7906 0.7904
2650.207122 0.7902 0.7899 0.7896 0.7893 0.7890
2655.235814 0.7886 0.7883 0.7880 0.7877 0.7874
2660.264507 0.7871 0.7868 0.7864 0.7861 0.7857
2665.293199 0.7853 0.7850 0.7846 0.7842 0.7838
2670.321892 0.7835 0.7831 0.7827 0.7823 0.7818
2675.350584 0.7813 0.7808 0.7803 0.7797 0.7792
2680.379277 0.7787 0.7782 0.7776 0.7771 0.7766
2685.407969 0.7761 0.7757 0.7753 0.7750 0.7746
2690.436662 0.7742 0.7738 0.7735 0.7731 0.7727
2695.465354 0.7723 0.7720 0.7716 0.7712 0.7708
2700.494047 0.7705 0.7701 0.7697 0.7693 0.7688
2705.522739 0.7684 0.7680 0.7676 0.7671 0.7667
2710.551432 0.7662 0.7658 0.7654 0.7650 0.7645
2715.580124 0.7640 0.7636 0.7632 0.7627 0.7623
2720.608817 0.7619 0.7615 0.7610 0.7606 0.7602
2725.637509 0.7597 0.7593 0.7589 0.7585 0.7580
2730.666202 0.7576 0.7572 0.7567 0.7563 0.7559
2735.694894 0.7554 0.7550 0.7545 0.7541 0.7537
2740.723587 0.7532 0.7528 0.7524 0.7519 0.7515
2745.752279 0.7511 0.7506 0.7502 0.7498 0.7493
2750.780972 0.7489 0.7485 0.7480 0.7476 0.7471
2755.809664 0.7467 0.7462 0.7458 0.7453 0.7449
2760.838356 0.7444 0.7440 0.7435 0.7431 0.7426
2765.867049 0.7422 0.7417 0.7413 0.7408 0.7404
2770.895741 0.7400 0.7395 0.7390 0.7386 0.7381
2775.924434 0.7377 0.7373 0.7368 0.7364 0.7360
2780.953126 0.7355 0.7351 0.7346 0.7342 0.7338
2785.981819 0.7333 0.7329 0.7325 0.7320 0.7316
2791.010511 0.7312 0.7307 0.7303 0.7299 0.7295
2796.039204 0.7291 0.7286 0.7282 0.7278 0.7274
2801.067896 0.7269 0.7265 0.7261 0.7257 0.7252
2806.096589 0.7248 0.7244 0.7240 0.7236 0.7231
2811.125281 0.7227 0.7222 0.7217 0.7212 0.7206
2816.153974 0.7201 0.7195 0.7190 0.7184 0.7178
2821.182666 0.7173 0.7167 0.7162 0.7156 0.7151
2826.211359 0.7145 0.7140 0.7134 0.7129 0.7124
2831.240051 0.7118 0.7113 0.7107 0.7101 0.7096
2836.268744 0.7090 0.7084 0.7079 0.7073 0.7067
2841.297436 0.7061 0.7056 0.7050 0.7044 0.7039
2846.326129 0.7033 0.7027 0.7021 0.7016 0.7011
2851.354821 0.7006 0.7001 0.6996 0.6991 0.6986
2856.383514 0.6981 0.6976 0.6971 0.6966 0.6962
2861.412206 0.6957 0.6952 0.6947 0.6942 0.6936
2866.440899 0.6930 0.6922 0.6916 0.6909 0.6902
2871.469591 0.6896 0.6889 0.6882 0.6875 0.6869
2876.498284 0.6862 0.6855 0.6849 0.6842 0.6835
2881.526976 0.6828 0.6822 0.6814 0.6806 0.6798
2886.555669 0.6790 0.6781 0.6773 0.6765 0.6757
2891.584361 0.6749 0.6741 0.6733 0.6725 0.6716
2896.613054 0.6708 0.6699 0.6691 0.6682 0.6674
2901.641746 0.6665 0.6656 0.6647 0.6639 0.6633
2906.670438 0.6628 0.6623 0.6617 0.6612 0.6607
2911.699131 0.6602 0.6597 0.6592 0.6586 0.6583
2916.727823 0.6580 0.6577 0.6574 0.6571 0.6568
2921.756516 0.6566 0.6563 0.6560 0.6557 0.6555
2926.785208 0.6553 0.6552 0.6550 0.6549 0.6547
2931.813901 0.6545 0.6544 0.6542 0.6541 0.6539
2936.842593 0.6537 0.6535 0.6534 0.6532 0.6529
2941.871286 0.6527 0.6524 0.6522 0.6519 0.6517
2946.899978 0.6514 0.6512 0.6508 0.6504 0.6501
2951.928671 0.6497 0.6494 0.6490 0.6486 0.6482
2956.957363 0.6479 0.6475 0.6472 0.6468 0.6465
2961.986056 0.6462 0.6458 0.6455 0.6452 0.6449
2967.014748 0.6445 0.6442 0.6439 0.6435 0.6431
2972.043441 0.6427 0.6423 0.6419 0.6415 0.6410
2977.072133 0.6403 0.6395 0.6386 0.6378 0.6370
2982.100826 0.6362 0.6353 0.6344 0.6335 0.6326
2987.129518 0.6318 0.6309 0.6300 0.6291 0.6283
2992.158211 0.6275 0.6267 0.6259 0.6251 0.6243
2997.186903 0.6233 0.6224 0.6214 0.6205 0.6196
3002.215596 0.6189 0.6182 0.6176 0.6170 0.6164
3007.244288 0.6158 0.6152 0.6145 0.6139 0.6133
3012.272981 0.6127 0.6120 0.6114 0.6108 0.6102
3017.301673 0.6097 0.6091 0.6086 0.6080 0.6075
3022.330366 0.6069 0.6064 0.6058 0.6053 0.6047
3027.359058 0.6042 0.6036 0.6031 0.6025 0.6020
3032.387751 0.6014 0.6008 0.6003 0.5998 0.5993
3037.416443 0.5989 0.5984 0.5980 0.5975 0.5970
3042.445135 0.5965 0.5959 0.5954 0.5948 0.5942
3047.473828 0.5936 0.5930 0.5924 0.5918 0.5911
3052.502520 0.5905 0.5899 0.5893 0.5887 0.5881
3057.531213 0.5875 0.5868 0.5861 0.5854 0.5847
3062.559905 0.5840 0.5833 0.5826 0.5818 0.5811
3067.588598 0.5799 0.5787 0.5775 0.5762 0.5750
3072.617290 0.5738 0.5725 0.5713 0.5701 0.5688
3077.645983 0.5674 0.5658 0.5643 0.5627 0.5611
3082.674675 0.5595 0.5580 0.5564 0.5547 0.5527
3087.703368 0.5507 0.5487 0.5467 0.5448 0.5431
3092.732060 0.5415 0.5398 0.5382 0.5365 0.5349
3097.760753 0.5332 0.5314 0.5294 0.5275 0.5255
3102.789445 0.5236 0.5216 0.5197 0.5178 0.5160
3107.818138 0.5143 0.5125 0.5107 0.5090 0.5072
3112.846830 0.5055 0.5037 0.5017 0.4991 0.4964
3117.875523 0.4938 0.4912 0.4885 0.4859 0.4834
3122.904215 0.4810 0.4786 0.4762 0.4739 0.4715
3127.932908 0.4691 0.4667 0.4640 0.4610 0.4580
3132.961600 0.4550 0.4520 0.4491 0.4460 0.4429
3137.990293 0.4401 0.4373 0.4345 0.4320 0.4295
3143.018985 0.4282 0.4277 0.4271 0.4270 0.4269
3148.047678 0.4269 0.4268 0.4268 0.4269 0.4271
3153.076370 0.4273 0.4274 0.4275 0.4276 0.4277
3158.105063 0.4278 0.4277 0.4265 0.4280 0.4280
3163.133755 0.4281 0.4281 0.4281 0.4282 0.4282
3168.162448 0.4282 0.4282 0.4282 0.4281 0.4281
3173.191140 0.4281 0.4280 0.4280 0.4280 0.4279
3178.219832 0.4279 0.4279 0.4279 0.4279 0.4279
3183.248525 0.4280 0.4280 0.4281 0.4281 0.4281
3188.277217 0.4282 0.4282 0.4282 0.4283 0.4283
3193.305910 0.4284 0.4284 0.4284 0.4285 0.4286
3198.334602 0.4288 0.4289 0.4290 0.4291 0.4289
3203.363295 0.4283 0.4278 0.4272 0.4265 0.4258
3208.391987 0.4249 0.4237 0.4224 0.4211 0.4197
3213.420680 0.4181 0.4165 0.4150 0.4136 0.4121
3218.449372 0.4106 0.4090 0.4075 0.4060 0.4045
3223.478065 0.4031 0.4016 0.4002 0.3986 0.3970
3228.506757 0.3953 0.3937 0.3920 0.3900 0.3877
3233.535450 0.3854 0.3831 0.3810 0.3792 0.3774
3238.564142 0.3756 0.3738 0.3720 0.3702 0.3684
3243.592835 0.3666 0.3648 0.3631 0.3613 0.3596
3248.621527 0.3583 0.3570 0.3557 0.3545 0.3533
3253.650220 0.3521 0.3509 0.3498 0.3487 0.3476
3258.678912 0.3465 0.3454 0.3443 0.3432 0.3423
3263.707605 0.3414 0.3406 0.3398 0.3390 0.3383
3268.736297 0.3375 0.3367 0.3360 0.3353 0.3346
3273.764990 0.3339 0.3333 0.3326 0.3319 0.3312
3278.793682 0.3305 0.3297 0.3290 0.3283 0.3276
3283.822375 0.3269 0.3262 0.3254 0.3247 0.3240
3288.851067 0.3233 0.3226 0.3219 0.3212 0.3206
3293.879760 0.3199 0.3192 0.3186 0.3179 0.3173
3298.908452 0.3166 0.3158 0.3150 0.3142 0.3134
3303.937145 0.3126 0.3121 0.3115 0.3109 0.3104
3308.965837 0.3098 0.3093 0.3087 0.3082 0.3078
3313.994530 0.3075 0.3072 0.3069 0.3066 0.3063
3319.023222 0.3061 0.3059 0.3057 0.3055 0.3053
3324.051914 0.3053 0.3054 0.3054 0.3054 0.3055
3329.080607 0.3055 0.3056 0.3055 0.3045 0.3057
3334.109299 0.3058 0.3059 0.3061 0.3062 0.3064
3339.137992 0.3065 0.3067 0.3068 0.3068 0.3068
3344.166684 0.3068 0.3068 0.3068 0.3068 0.3068
3349.195377 0.3068 0.3068 0.3068 0.3068 0.3069
3354.224069 0.3069 0.3070 0.3071 0.3072 0.3073
3359.252762 0.3073 0.3074 0.3076 0.3078 0.3080
3364.281454 0.3082 0.3084 0.3087 0.3089 0.3090
3369.310147 0.3090 0.3094 0.3102 0.3112 0.3123
3374.338839 0.3138 0.3159 0.3178 0.3193 0.3206
3379.367532 0.3219 0.3237 0.3263 0.3285 0.3303
3384.396224 0.3322 0.3344 0.3370 0.3392 0.3408
3389.424917 0.3425 0.3441 0.3455 0.3468 0.3480
3394.453609 0.3496 0.3517 0.3541 0.3562 0.3579
3399.482302 0.3593 0.3607 0.3621 0.3636 0.3651
3404.510994 0.3668 0.3685 0.3703 0.3721 0.3738
3409.539687 0.3755 0.3772 0.3789 0.3806 0.3824
3414.568379 0.3842 0.3860 0.3880 0.3901 0.3922
3419.597072 0.3944 0.3965 0.3986 0.4008 0.4033
3424.625764 0.4060 0.4086 0.4114 0.4144 0.4173
3429.654457 0.4208 0.4249 0.4291 0.4334 0.4382
3434.683149 0.4432 0.4478 0.4522 0.4564 0.4607
3439.711842 0.4649 0.4704 0.4780 0.4841 0.4883
3444.740534 0.4920 0.4958 0.5004 0.5054 0.5098
3449.769227 0.5137 0.5175 0.5214 0.5257 0.5301
3454.797919 0.5344 0.5388 0.5432 0.5475 0.5512
3459.826611 0.5539 0.5566 0.5593 0.5619 0.5645
3464.855304 0.5670 0.5695 0.5720 0.5744 0.5768
3469.883996 0.5790 0.5808 0.5827 0.5846 0.5865
3474.912689 0.5883 0.5899 0.5915 0.5930 0.5946
3479.941381 0.5962 0.5978 0.5990 0.6002 0.6013
3484.970074 0.6024 0.6034 0.6045 0.6055 0.6064
3489.998766 0.6074 0.6082 0.6089 0.6096 0.6102
3495.027459 0.6115 0.6134 0.6156 0.6179 0.6202
3500.056151 0.6225 0.6249 0.6277 0.6304 0.6334
3505.084844 0.6365 0.6390 0.6408 0.6425 0.6441
3510.113536 0.6458 0.6475 0.6489 0.6504 0.6524
3515.142229 0.6543 0.6562 0.6582 0.6605 0.6627
3520.170921 0.6648 0.6666 0.6683 0.6696 0.6710
3525.199614 0.6724 0.6738 0.6753 0.6769 0.6786
3530.228306 0.6804 0.6823 0.6842 0.6860 0.6879
3535.256999 0.6897 0.6915 0.6933 0.6950 0.6968
3540.285691 0.6986 0.7004 0.7020 0.7035 0.7049
3545.314384 0.7064 0.7078 0.7093 0.7107 0.7122
3550.343076 0.7140 0.7158 0.7175 0.7193 0.7211
3555.371769 0.7229 0.7247 0.7265 0.7283 0.7301
3560.400461 0.7319 0.7337 0.7354 0.7373 0.7391
3565.429154 0.7408 0.7424 0.7440 0.7455 0.7470
3570.457846 0.7486 0.7501 0.7517 0.7532 0.7544
3575.486539 0.7555 0.7567 0.7578 0.7590 0.7601
3580.515231 0.7613 0.7624 0.7635 0.7645 0.7655
3585.543924 0.7664 0.7674 0.7684 0.7694 0.7703
3590.572616 0.7713 0.7723 0.7732 0.7742 0.7753
3595.601309 0.7763 0.7774 0.7784 0.7795 0.7805
3600.630001 0.7816 0.7826 0.7836 0.7847 0.7857
3605.658693 0.7867 0.7876 0.7886 0.7895 0.7904
3610.687386 0.7914 0.7923 0.7933 0.7942 0.7951
3615.716078 0.7960 0.7969 0.7977 0.7985 0.7992
3620.744771 0.8000 0.8008 0.8016 0.8023 0.8030
3625.773463 0.8037 0.8044 0.8051 0.8058 0.8065
3630.802156 0.8072 0.8079 0.8086 0.8092 0.8099
3635.830848 0.8106 0.8112 0.8117 0.8122 0.8127
3640.859541 0.8132 0.8137 0.8142 0.8147 0.8151
3645.888233 0.8154 0.8158 0.8161 0.8165 0.8169
3650.916926 0.8172 0.8175 0.8177 0.8179 0.8181
3655.945618 0.8184 0.8186 0.8188 0.8190 0.8193
3660.974311 0.8195 0.8197 0.8199 0.8201 0.8203
3666.003003 0.8205 0.8207 0.8209 0.8211 0.8213
3671.031696 0.8214 0.8215 0.8216 0.8216 0.8217
3676.060388 0.8218 0.8219 0.8222 0.8224 0.8227
3681.089081 0.8229 0.8231 0.8236 0.8246 0.8257
3686.117773 0.8266 0.8275 0.8284 0.8294 0.8302
3691.146466 0.8308 0.8313 0.8318 0.8323 0.8327
3696.175158 0.8328 0.8328 0.8328 0.8329 0.8329
3701.203851 0.8329 0.8329 0.8329 0.8329 0.8329
3706.232543 0.8329 0.8329 0.8329 0.8329 0.8329
3711.261236 0.8329 0.8329 0.8330 0.8330 0.8331
3716.289928 0.8331 0.8331 0.8332 0.8332 0.8332
3721.318621 0.8331 0.8330 0.8329 0.8328 0.8327
3726.347313 0.8326 0.8325 0.8324 0.8323 0.8322
3731.376006 0.8321 0.8320 0.8320 0.8320 0.8320
3736.404698 0.8319 0.8319 0.8319 0.8320 0.8321
3741.433390 0.8323 0.8324 0.8326 0.8327 0.8329
3746.462083 0.8334 0.8341 0.8348 0.8356 0.8365
3751.490775 0.8373 0.8379 0.8383 0.8387 0.8391
3756.519468 0.8393 0.8394 0.8394 0.8393 0.8393
3761.548160 0.8393 0.8392 0.8390 0.8388 0.8386
3766.576853 0.8384 0.8383 0.8381 0.8378 0.8376
3771.605545 0.8373 0.8370 0.8368 0.8365 0.8362
3776.634238 0.8359 0.8355 0.8352 0.8348 0.8345
3781.662930 0.8341 0.8338 0.8334 0.8331 0.8327
3786.691623 0.8324 0.8320 0.8317 0.8314 0.8312
3791.720315 0.8309 0.8307 0.8304 0.8301 0.8299
3796.749008 0.8296 0.8293 0.8291 0.8288 0.8286
3801.777700 0.8283 0.8281 0.8278 0.8276 0.8274
3806.806393 0.8273 0.8271 0.8270 0.8269 0.8268
3811.835085 0.8267 0.8266 0.8265 0.8264 0.8263
3816.863778 0.8262 0.8262 0.8262 0.8262 0.8262
3821.892470 0.8262 0.8263 0.8263 0.8263 0.8263
3826.921163 0.8263 0.8263 0.8263 0.8262 0.8262
3831.949855 0.8261 0.8261 0.8261 0.8260 0.8260
3836.978548 0.8259 0.8259 0.8258 0.8258 0.8258
3842.007240 0.8257 0.8257 0.8256 0.8256 0.8256
3847.035933 0.8256 0.8255 0.8255 0.8255 0.8255
3852.064625 0.8254 0.8254 0.8254 0.8254 0.8253
3857.093318 0.8253 0.8253 0.8253 0.8252 0.8252
3862.122010 0.8252 0.8252 0.8252 0.8253 0.8254
3867.150703 0.8256 0.8258 0.8259 0.8261 0.8262
3872.179395 0.8264 0.8266 0.8267 0.8269 0.8271
3877.208087 0.8272 0.8274 0.8275 0.8277 0.8279
3882.236780 0.8280 0.8282 0.8284 0.8286 0.8287
3887.265472 0.8289 0.8291 0.8292 0.8293 0.8295
3892.294165 0.8296 0.8297 0.8298 0.8299 0.8300
3897.322857 0.8301 0.8302 0.8303 0.8305 0.8306
3902.351550 0.8307 0.8308 0.8309 0.8310 0.8311
3907.380242 0.8312 0.8313 0.8314 0.8316 0.8317
3912.408935 0.8318 0.8319 0.8320 0.8321 0.8322
3917.437627 0.8323 0.8324 0.8325 0.8326 0.8327
3922.466320 0.8328 0.8328 0.8329 0.8330 0.8331
3927.495012 0.8333 0.8334 0.8335 0.8336 0.8337
3932.523705 0.8338 0.8340 0.8341 0.8342 0.8343
3937.552397 0.8344 0.8345 0.8346 0.8347 0.8348
3942.581090 0.8349 0.8351 0.8352 0.8353 0.8354
3947.609782 0.8355 0.8356 0.8357 0.8358 0.8359
3952.638475 0.8360 0.8361 0.8361 0.8362 0.8363
3957.667167 0.8364 0.8365 0.8366 0.8367 0.8368
3962.695860 0.8369 0.8369 0.8370 0.8371 0.8372
3967.724552 0.8365 0.8370 0.8374 0.8375 0.8375
3972.753245 0.8376 0.8377 0.8378 0.8380 0.8381
3977.781937 0.8383 0.8385 0.8387 0.8389 0.8391
3982.810630 0.8393 0.8395 0.8396 0.8398 0.8399
3987.839322 0.8400 0.8402 0.8403 0.8404 0.8405
3992.868015 0.8406 0.8408 0.8409 0.8410 0.8411
3997.896707 0.8411 0.8412 0.8413 0.8414 0.8414
4002.925400 0.8415 0.8416 0.8417 0.8418 0.8418
4007.954092 0.8419 0.8420 0.8421 0.8421 0.8422
4012.982785 0.8423 0.8424 0.8424
##END=
