##TITLE=Methylcyclobutane
##JCAMP-DX=4.24
##DATA TYPE=INFRARED SPECTRUM
##ORIGIN=NIST Mass Spectrometry Data Center
##OWNER=NIST Standard Reference Data Program
Collection (C) 2018 copyright by the U.S. Secretary of Commerce
on behalf of the United States of America. All rights reserved.
##CAS REGISTRY NO=598-61-8
##MOLFORM=C 5 H 10
##$NIST SOURCE=MSDC-IR
##SPECTROMETER/DATA SYSTEM=HP-GC/MS/IRD
##STATE=gas
##XUNITS=1/CM
##YUNITS=ABSORBANCE
##XFACTOR=1.0
##YFACTOR=0.000003600
##DELTAX=4.0
##FIRSTX=550.0
##LASTX=3846.0
##FIRSTY=0.000313
##MAXX=3846
##MINX=550
##MAXY=0.036
##MINY=0
##NPOINTS=825
##XYDATA=(X++(Y..Y))
550.0 87 0 15 28 59 28 15 33 40 54
590.0 73 61 94 127 101 86 90 87 94 118
630.0 106 90 90 76 49 40 58 113 137 95
670.0 69 92 115 118 120 101 89 87 83 77
710.0 73 112 103 85 82 59 51 69 101 105
750.0 104 89 86 111 120 113 92 86 94 91
790.0 77 66 59 81 101 68 68 82 81 82
830.0 90 108 100 95 109 113 110 115 124 123
870.0 135 144 142 124 118 137 153 159 163 183
910.0 189 192 192 168 160 159 140 127 136 149
950.0 156 146 135 141 124 111 114 114 116 120
990.0 124 124 102 72 59 62 65 64 73 79
1030.0 51 51 61 59 83 90 88 61 61 70
1070.0 71 94 94 88 104 136 148 123 107 109
1110.0 98 97 108 99 83 68 66 86 95 76
1150.0 54 74 87 94 87 74 79 70 79 90
1190.0 87 71 53 54 70 97 114 118 120 131
1230.0 154 181 190 193 206 196 181 184 178 158
1270.0 148 129 111 106 94 81 82 91 105 120
1310.0 141 167 202 245 285 322 341 348 353 337
1350.0 335 354 356 347 335 318 325 380 356 309
1390.0 327 326 292 250 224 222 239 272 309 349
1430.0 404 456 490 521 570 599 576 598 630 580
1470.0 505 447 391 360 322 274 234 203 172 144
1510.0 121 110 104 98 99 97 91 83 84 87
1550.0 90 79 76 85 82 73 72 77 82 77
1590.0 64 70 71 66 67 68 64 69 73 73
1630.0 71 70 74 74 77 84 86 74 69 75
1670.0 74 70 69 67 74 75 69 74 74 74
1710.0 69 59 58 55 53 52 45 52 53 45
1750.0 46 52 52 48 44 46 56 50 41 43
1790.0 46 51 53 46 51 61 64 62 58 63
1830.0 64 56 50 51 60 65 57 55 64 59
1870.0 56 53 50 45 45 50 46 47 50 44
1910.0 44 47 48 50 49 48 50 48 45 46
1950.0 48 43 44 43 40 45 51 46 39 44
1990.0 46 38 35 41 48 46 41 37 38 49
2030.0 53 48 42 39 48 53 52 50 52 57
2070.0 60 61 49 47 57 64 59 61 60 55
2110.0 58 63 72 76 73 64 71 73 67 68
2150.0 73 72 60 60 62 63 74 72 62 61
2190.0 63 62 59 57 55 51 51 49 51 38
2230.0 35 45 39 40 40 34 31 30 26 29
2270.0 30 27 22 22 27 26 24 32 30 30
2310.0 31 34 44 41 30 31 43 46 40 42
2350.0 44 41 40 39 35 34 33 30 29 24
2390.0 23 21 14 21 28 29 30 29 36 33
2430.0 33 38 35 27 23 33 37 36 39 43
2470.0 39 33 38 38 39 45 49 40 34 39
2510.0 50 53 42 38 31 31 32 36 45 42
2550.0 39 48 52 41 36 30 36 38 42 51
2590.0 45 52 54 47 43 41 52 59 51 55
2630.0 69 74 86 95 89 88 103 110 103 89
2670.0 92 104 99 90 92 91 93 94 102 98
2710.0 97 106 111 126 136 139 141 137 130 117
2750.0 128 138 128 119 107 113 128 143 164 162
2790.0 165 187 209 230 242 267 313 341 387 443
2830.0 507 612 738 897 1103 1389 1757 2158 2466 2561
2870.0 2579 2840 3111 3103 3092 3163 3193 3207 3266 3441
2910.0 3711 4003 4377 4814 5259 5833 6506 7204 7974 8716
2950.0 9327 9798 10000 9773 9583 9225 9167 9873 8177 5710
2990.0 4742 3975 3351 2738 2171 1666 1260 940 697 544
3030.0 474 425 389 361 337 329 322 311 304 296
3070.0 281 253 227 215 201 185 178 165 165 168
3110.0 157 168 168 144 118 117 126 125 138 120
3150.0 111 129 131 130 112 99 94 100 119 114
3190.0 99 107 95 65 71 82 77 67 68 77
3230.0 57 45 52 47 63 75 69 79 84 81
3270.0 76 79 80 65 58 69 80 89 90 65
3310.0 60 60 64 85 82 58 52 55 65 67
3350.0 60 77 80 71 79 84 74 69 53 42
3390.0 47 44 63 61 51 49 48 47 53 62
3430.0 35 20 32 37 23 19 38 53 40 36
3470.0 46 30 32 50 41 47 52 33 45 43
3510.0 33 19 14 37 37 27 32 30 17 14
3550.0 28 49 40 23 20 30 47 55 40 36
3590.0 30 30 29 23 22 29 57 71 53 59
3630.0 67 54 56 85 89 43 42 49 30 33
3670.0 34 35 35 36 55 62 64 57 59 61
3710.0 59 63 64 59 60 62 61 68 66 64
3750.0 61 66 74 77 79 74 70 61 55 53
3790.0 53 47 54 58 56 68 74 71 78 86
3830.0 77 66 72 64 55
##END=
