##TITLE=Methylisocyanate
##JCAMP-DX=4.24
##DATA TYPE=INFRARED SPECTRUM
##ORIGIN=NIST Mass Spectrometry Data Center
##OWNER=NIST Standard Reference Data Program
Collection (C) 2018 copyright by the U.S. Secretary of Commerce
on behalf of the United States of America. All rights reserved.
##CAS REGISTRY NO=624-83-9
##MOLFORM=C 2 H 3 N O
##$NIST SOURCE=MSDC-IR
##SPECTROMETER/DATA SYSTEM=HP-GC/MS/IRD
##STATE=gas
##XUNITS=1/CM
##YUNITS=ABSORBANCE
##XFACTOR=1.0
##YFACTOR=0.000024200
##DELTAX=4.0
##FIRSTX=550.0
##LASTX=3846.0
##FIRSTY=0.000411
##MAXX=3846
##MINX=550
##MAXY=0.242
##MINY=0
##NPOINTS=825
##XYDATA=(X++(Y..Y))
550.0 17 28 31 40 58 75 89 107 125 173
590.0 246 297 342 398 442 473 503 531 516 423
630.0 324 268 226 186 157 139 131 132 124 115
670.0 110 101 91 77 66 60 56 53 46 37
710.0 29 29 26 22 20 18 14 15 17 13
750.0 10 7 8 10 11 15 18 23 29 32
790.0 43 53 60 64 65 66 66 69 74 81
830.0 88 102 123 146 177 205 224 240 248 246
870.0 243 257 264 245 203 152 107 72 53 42
910.0 38 35 31 30 28 29 28 27 25 21
950.0 20 19 17 15 9 7 7 6 6 5
990.0 1 1 4 2 0 4 6 5 3 1
1030.0 2 4 7 7 11 16 15 15 16 17
1070.0 19 19 20 24 25 25 26 25 25 29
1110.0 29 32 38 40 44 46 47 49 56 62
1150.0 63 64 61 62 62 56 50 50 50 47
1190.0 45 45 44 45 45 43 42 42 39 36
1230.0 35 34 33 31 28 26 21 19 17 16
1270.0 16 17 17 17 19 18 18 19 21 22
1310.0 22 23 26 26 28 31 34 38 44 48
1350.0 53 62 72 80 89 110 131 155 188 223
1390.0 254 292 338 374 410 452 472 458 423 403
1430.0 413 426 414 356 282 229 189 160 149 144
1470.0 130 129 130 110 102 104 99 94 94 93
1510.0 87 89 90 76 71 70 61 55 56 53
1550.0 50 52 49 45 43 41 39 36 35 33
1590.0 32 33 33 32 31 32 31 32 30 28
1630.0 30 30 28 27 26 25 23 21 19 17
1670.0 15 14 12 11 9 7 7 8 6 3
1710.0 4 4 3 2 0 1 0 1 1 2
1750.0 2 1 0 0 1 1 0 0 0 0
1790.0 0 0 0 0 0 2 2 1 0 0
1830.0 1 2 2 2 1 0 2 3 2 3
1870.0 2 1 1 3 2 2 3 2 2 2
1910.0 3 3 2 2 3 5 5 5 5 6
1950.0 5 5 6 7 6 5 4 6 8 9
1990.0 10 10 12 13 13 15 17 18 19 21
2030.0 24 26 26 27 29 32 34 36 37 40
2070.0 45 53 60 66 76 87 99 112 129 148
2110.0 162 170 175 184 193 203 210 210 209 208
2150.0 206 205 207 211 218 229 245 266 297 344
2190.0 406 489 602 745 923 1146 1427 1766 2168 2642
2230.0 3188 3799 4473 5204 5997 6755 7418 7925 8323 8703
2270.0 9032 9462 9891 10000 9547 8672 7816 7327 7304 7510
2310.0 7362 6539 5348 4242 3426 2916 2649 2596 2566 2287
2350.0 1763 1187 746 488 359 287 239 204 176 154
2390.0 139 127 121 119 119 120 125 136 147 158
2430.0 169 187 203 221 240 254 264 270 269 264
2470.0 258 250 239 219 195 172 148 126 108 91
2510.0 74 62 52 42 35 30 27 23 22 23
2550.0 22 23 23 25 26 25 24 24 25 24
2590.0 23 24 24 25 25 23 22 20 19 21
2630.0 21 19 19 20 17 14 12 11 12 9
2670.0 9 7 8 8 7 7 6 3 4 4
2710.0 5 4 3 2 2 4 4 2 0 3
2750.0 4 5 6 7 9 12 17 18 19 26
2790.0 30 35 43 52 62 69 75 80 83 88
2830.0 91 92 91 89 87 85 87 93 99 107
2870.0 117 125 136 150 163 181 200 216 233 248
2910.0 256 266 284 308 329 352 381 416 454 484
2950.0 495 481 449 445 460 473 465 419 354 296
2990.0 255 230 219 208 194 186 180 180 176 178
3030.0 169 153 144 136 130 125 128 121 111 106
3070.0 101 97 96 100 100 97 96 99 98 100
3110.0 103 100 101 105 104 108 113 108 100 100
3150.0 105 107 107 108 108 111 110 98 85 73
3190.0 67 64 60 55 51 40 28 20 12 7
3230.0 4 5 7 8 6 2 2 3 4 4
3270.0 4 5 7 5 2 4 2 0 0 0
3310.0 0 0 2 1 3 7 5 2 6 8
3350.0 6 6 5 3 5 6 4 3 4 5
3390.0 4 5 6 7 8 5 3 2 3 7
3430.0 6 5 3 2 1 2 4 6 4 3
3470.0 4 7 7 6 7 9 7 7 12 11
3510.0 10 10 9 11 13 12 13 15 17 16
3550.0 16 18 19 19 20 21 20 20 24 29
3590.0 33 33 30 32 36 41 42 43 46 50
3630.0 51 53 60 65 65 68 70 73 75 83
3670.0 90 93 101 105 106 107 103 103 108 110
3710.0 110 109 103 98 97 97 95 93 90 89
3750.0 84 79 75 72 66 61 56 51 48 45
3790.0 43 42 41 42 37 30 28 24 22 22
3830.0 21 22 25 25 24
##END=
