##TITLE=2-Pentyn-1-ol
##JCAMP-DX=4.24
##DATA TYPE=INFRARED SPECTRUM
##ORIGIN=NIST Mass Spectrometry Data Center
##OWNER=NIST Standard Reference Data Program
Collection (C) 2018 copyright by the U.S. Secretary of Commerce
on behalf of the United States of America. All rights reserved.
##CAS REGISTRY NO=6261-22-9
##MOLFORM=C 5 H 8 O
##$NIST SOURCE=MSDC-IR
##SPECTROMETER/DATA SYSTEM=HP-GC/MS/IRD
##STATE=gas
##XUNITS=1/CM
##YUNITS=ABSORBANCE
##XFACTOR=1.0
##YFACTOR=0.000001700
##DELTAX=4.0
##FIRSTX=550.0
##LASTX=3846.0
##FIRSTY=0.000986
##MAXX=3846
##MINX=550
##MAXY=0.017
##MINY=0
##NPOINTS=825
##XYDATA=(X++(Y..Y))
550.0 580 267 108 204 209 193 188 159 133 124
590.0 108 137 153 107 138 154 89 15 19 61
630.0 61 38 30 43 84 96 124 180 148 100
670.0 78 97 126 129 138 138 141 182 223 217
710.0 249 308 330 384 405 382 418 426 386 366
750.0 340 316 301 276 246 224 185 154 150 133
790.0 129 113 100 92 75 78 75 56 61 78
830.0 71 85 88 95 131 136 135 140 129 131
870.0 133 168 210 215 214 225 269 341 402 434
910.0 495 589 679 770 883 1038 1147 1239 1344 1456
950.0 1593 1748 1921 2145 2438 2794 3165 3607 4138 4812
990.0 5622 6569 7697 8839 9691 10000 9789 9252 8383 7142
1030.0 5828 4723 3883 3285 2798 2357 1987 1674 1433 1251
1070.0 1110 1004 926 883 853 824 817 829 852 855
1110.0 882 989 1201 1523 1952 2405 2714 2801 2761 2634
1150.0 2274 1686 1194 955 808 682 633 626 602 593
1190.0 607 615 646 692 728 773 811 839 875 907
1230.0 935 973 999 1030 1048 1083 1108 1126 1150 1157
1270.0 1184 1218 1229 1241 1255 1299 1390 1556 1840 2288
1310.0 2861 3319 3442 3362 3308 3087 2561 2093 1913 1954
1350.0 2156 2467 2816 3203 3608 4017 4407 4783 5102 5301
1390.0 5333 5179 4865 4413 3835 3237 2690 2251 1932 1680
1430.0 1494 1375 1276 1214 1183 1143 1118 1087 1023 958
1470.0 888 799 719 655 595 522 451 398 365 327
1510.0 268 235 224 193 167 158 152 139 128 120
1550.0 115 121 139 153 134 126 135 131 134 123
1590.0 108 107 106 105 98 101 103 88 69 67
1630.0 71 55 44 56 60 66 71 61 56 56
1670.0 69 80 85 93 77 63 80 82 62 54
1710.0 47 47 51 47 35 34 52 51 37 24
1750.0 3 0 12 15 21 38 36 28 29 25
1790.0 25 18 18 27 34 35 36 27 21 27
1830.0 35 29 14 14 24 29 36 40 48 52
1870.0 49 55 49 45 53 47 28 22 37 53
1910.0 45 34 42 52 56 51 51 59 68 79
1950.0 81 81 85 92 94 99 103 107 97 89
1990.0 107 120 129 141 152 149 144 152 143 132
2030.0 123 114 113 116 104 87 81 68 53 46
2070.0 46 44 34 37 41 32 23 30 32 31
2110.0 28 29 40 38 37 39 43 46 44 42
2150.0 48 63 73 82 92 107 122 140 176 219
2190.0 260 318 370 418 494 566 633 716 784 810
2230.0 780 714 630 530 416 313 265 252 253 270
2270.0 297 333 383 428 452 450 429 398 339 252
2310.0 169 111 92 83 75 81 75 76 75 62
2350.0 52 59 66 72 75 67 70 61 52 58
2390.0 62 69 71 61 46 48 52 48 53 53
2430.0 49 39 44 55 56 47 41 30 41 44
2470.0 25 30 25 10 22 30 34 31 26 41
2510.0 50 49 47 35 33 33 31 42 55 43
2550.0 32 24 23 41 33 37 53 41 40 46
2590.0 60 69 76 82 78 79 88 95 111 122
2630.0 120 114 94 79 68 65 59 57 52 47
2670.0 47 59 78 80 78 82 89 87 98 113
2710.0 123 131 135 140 150 166 183 188 199 213
2750.0 228 261 277 261 263 264 261 273 303 338
2790.0 346 348 360 382 426 464 491 553 620 705
2830.0 813 917 1048 1210 1388 1608 1825 2053 2281 2505
2870.0 2771 3095 3468 3828 4098 4247 4376 4516 4544 4495
2910.0 4470 4525 4615 4740 4913 5131 5469 5899 6178 6142
2950.0 5971 5836 5564 5086 4718 4745 5189 5613 5593 5408
2990.0 5271 4771 3808 2909 2319 1935 1639 1388 1164 977
3030.0 807 645 547 476 408 351 297 263 259 256
3070.0 239 229 227 208 203 202 206 219 222 199
3110.0 202 191 173 190 180 168 162 155 142 126
3150.0 100 95 99 107 119 106 95 100 108 96
3190.0 85 70 56 64 56 57 47 46 50 30
3230.0 43 50 39 25 18 9 8 31 41 21
3270.0 18 23 14 28 33 20 31 38 41 37
3310.0 25 15 12 36 78 53 18 29 46 60
3350.0 53 52 66 72 55 32 32 48 64 61
3390.0 45 49 38 30 68 93 101 91 56 51
3430.0 64 70 83 89 74 61 74 73 64 83
3470.0 95 76 85 102 104 109 104 87 78 86
3510.0 76 88 136 149 146 161 166 158 136 136
3550.0 170 169 143 145 144 136 143 148 129 135
3590.0 153 195 222 259 322 373 416 492 577 655
3630.0 724 798 903 1016 1130 1211 1268 1286 1297 1336
3670.0 1340 1240 1103 989 888 762 626 514 428 389
3710.0 339 272 233 194 170 169 155 164 173 147
3750.0 149 153 139 164 174 155 146 138 127 130
3790.0 145 171 161 129 110 133 158 148 143 109
3830.0 82 93 115 134 123
##END=
