##TITLE=Allyl methyl ether
##JCAMP-DX=4.24
##DATA TYPE=INFRARED SPECTRUM
##ORIGIN=NIST Mass Spectrometry Data Center
##OWNER=NIST Standard Reference Data Program
Collection (C) 2018 copyright by the U.S. Secretary of Commerce
on behalf of the United States of America. All rights reserved.
##CAS REGISTRY NO=627-40-7
##MOLFORM=C 4 H 8 O
##$NIST SOURCE=MSDC-IR
##SPECTROMETER/DATA SYSTEM=HP-GC/MS/IRD
##STATE=gas
##XUNITS=1/CM
##YUNITS=ABSORBANCE
##XFACTOR=1.0
##YFACTOR=0.000001800
##DELTAX=4.0
##FIRSTX=550.0
##LASTX=3846.0
##FIRSTY=0.000722
##MAXX=3846
##MINX=550
##MAXY=0.018
##MINY=0
##NPOINTS=825
##XYDATA=(X++(Y..Y))
550.0 401 374 318 236 183 267 305 309 316 260
590.0 262 247 247 274 260 263 321 375 332 279
630.0 290 282 225 219 235 192 120 74 114 99
670.0 31 40 50 60 78 61 56 48 46 39
710.0 61 96 91 114 177 261 309 293 274 283
750.0 303 302 296 242 113 47 44 29 25 16
790.0 8 40 40 16 10 62 76 50 141 218
830.0 129 71 104 138 159 198 258 302 356 437
870.0 513 618 763 948 1151 1379 1673 2006 2387 2812
910.0 3258 3702 4098 4412 4484 4308 4188 4009 3711 3381
950.0 3059 2842 2678 2538 2436 2362 2334 2366 2396 2393
990.0 2319 2205 2125 2078 1985 1887 1785 1629 1488 1354
1030.0 1291 1290 1274 1301 1412 1557 1725 1961 2258 2581
1070.0 2980 3507 4123 4819 5541 6290 7077 7794 8494 9239
1110.0 9825 10000 9822 9510 9170 8692 7901 6977 6224 5641
1150.0 5123 4634 4231 3869 3497 3245 3113 3065 3125 3211
1190.0 3272 3247 3125 2978 2830 2618 2311 1961 1634 1331
1230.0 1138 1016 933 898 854 842 831 821 833 843
1270.0 855 853 798 716 671 656 617 566 519 478
1310.0 441 416 411 422 472 553 670 821 971 1121
1350.0 1257 1337 1382 1438 1457 1405 1260 1097 974 901
1390.0 874 905 982 1092 1239 1388 1515 1579 1584 1566
1430.0 1580 1574 1476 1331 1257 1255 1272 1275 1224 1137
1470.0 1053 964 858 743 628 532 439 361 308 261
1510.0 209 187 179 165 152 149 138 124 125 128
1550.0 114 109 114 111 113 115 113 120 132 126
1590.0 123 130 129 136 149 176 205 231 263 305
1630.0 350 381 408 415 400 387 376 368 323 251
1670.0 176 120 96 75 56 57 43 43 60 56
1710.0 49 31 26 33 26 22 22 24 25 27
1750.0 27 22 23 19 19 16 14 14 16 19
1790.0 21 32 33 38 34 42 59 72 97 121
1830.0 155 197 225 250 271 282 283 286 285 271
1870.0 241 187 143 117 90 65 62 62 42 31
1910.0 29 26 23 16 18 32 41 43 41 44
1950.0 51 54 58 76 93 103 112 120 123 123
1990.0 126 134 141 143 151 139 126 130 147 151
2030.0 151 169 172 172 174 166 169 175 167 163
2070.0 165 169 172 171 163 133 119 111 104 95
2110.0 80 73 72 55 44 49 52 41 31 40
2150.0 63 63 41 17 17 30 30 42 37 23
2190.0 24 32 34 25 29 26 28 29 21 28
2230.0 24 22 16 0 8 15 17 11 0 10
2270.0 19 17 12 16 20 21 21 18 13 24
2310.0 27 24 25 38 52 44 25 17 18 29
2350.0 37 29 31 32 31 40 44 41 31 30
2390.0 40 46 51 57 46 29 28 36 46 49
2430.0 45 39 33 36 38 24 17 19 26 27
2470.0 25 25 18 11 19 25 25 30 24 20
2510.0 28 34 35 32 37 58 56 36 43 70
2550.0 73 60 53 56 63 86 101 91 87 94
2590.0 113 126 117 104 105 112 120 124 115 104
2630.0 101 102 114 121 124 134 143 151 153 167
2670.0 171 165 199 223 224 253 263 286 313 329
2710.0 340 350 366 360 361 387 412 426 434 465
2750.0 486 504 546 590 649 706 777 895 1038 1197
2790.0 1395 1650 1965 2335 2787 3331 3877 4329 4688 4988
2830.0 5287 5531 5664 5688 5578 5438 5320 5205 5137 5085
2870.0 5050 5017 4990 4984 4979 4963 4963 4966 5006 5087
2910.0 5168 5228 5286 5345 5369 5350 5282 5106 4846 4538
2950.0 4238 3962 3711 3491 3363 3376 3505 3692 3838 3865
2990.0 3822 3771 3675 3563 3402 3106 2703 2338 2073 1848
3030.0 1675 1569 1466 1339 1245 1175 1148 1176 1225 1299
3070.0 1392 1479 1588 1671 1720 1696 1597 1584 1526 1338
3110.0 1108 922 767 605 488 391 314 282 253 196
3150.0 163 149 141 135 112 91 86 90 99 82
3190.0 77 86 94 97 77 71 54 69 69 57
3230.0 52 53 50 49 56 47 37 38 50 41
3270.0 42 33 16 18 37 66 76 70 47 36
3310.0 48 47 29 27 45 64 78 54 36 68
3350.0 78 69 71 49 42 53 46 34 15 25
3390.0 52 49 53 52 30 37 50 26 15 57
3430.0 80 52 50 42 18 40 45 28 30 53
3470.0 49 22 29 41 63 71 55 64 53 43
3510.0 25 25 41 16 40 62 47 43 51 46
3550.0 49 63 73 65 23 13 52 66 37 48
3590.0 61 45 64 77 53 32 37 26 32 45
3630.0 31 17 19 39 59 62 76 61 51 68
3670.0 53 35 58 69 60 77 69 61 52 66
3710.0 55 10 16 47 69 78 56 13 12 16
3750.0 33 55 55 57 44 32 31 24 30 33
3790.0 37 65 44 29 80 96 99 76 44 59
3830.0 57 50 67 69 62
##END=
