##TITLE=Trimethylacetonitrile
##JCAMP-DX=4.24
##DATA TYPE=INFRARED SPECTRUM
##ORIGIN=NIST Mass Spectrometry Data Center
##OWNER=NIST Standard Reference Data Program
Collection (C) 2018 copyright by the U.S. Secretary of Commerce
on behalf of the United States of America. All rights reserved.
##CAS REGISTRY NO=630-18-2
##MOLFORM=C 5 H 9 N
##$NIST SOURCE=MSDC-IR
##SPECTROMETER/DATA SYSTEM=HP-GC/MS/IRD
##STATE=gas
##XUNITS=1/CM
##YUNITS=ABSORBANCE
##XFACTOR=1.0
##YFACTOR=0.000002700
##DELTAX=4.0
##FIRSTX=550.0
##LASTX=3846.0
##FIRSTY=0.000192
##MAXX=3846
##MINX=550
##MAXY=0.027
##MINY=0
##NPOINTS=825
##XYDATA=(X++(Y..Y))
550.0 71 10 10 24 53 28 0 72 88 80
590.0 111 80 64 70 80 85 67 73 37 32
630.0 37 30 58 66 54 48 76 131 163 158
670.0 179 196 219 252 241 206 174 143 103 69
710.0 51 51 37 54 82 75 71 76 89 93
750.0 91 94 107 125 129 103 81 89 99 64
790.0 47 65 68 54 44 37 40 59 53 56
830.0 71 58 66 76 67 80 84 79 81 85
870.0 96 106 102 76 74 80 58 64 88 80
910.0 99 116 124 137 158 199 206 178 158 136
950.0 114 96 78 64 58 58 41 35 46 35
990.0 27 31 26 31 34 53 72 48 42 70
1030.0 86 81 80 76 83 63 53 55 43 71
1070.0 49 19 34 44 55 58 52 59 66 69
1110.0 87 107 103 90 99 130 164 176 170 174
1150.0 170 164 151 150 185 203 243 313 395 548
1190.0 729 926 1177 1450 1657 1724 1643 1496 1352 1285
1230.0 1321 1429 1547 1588 1566 1458 1307 1112 901 716
1270.0 542 395 290 233 199 175 157 137 127 124
1310.0 123 123 119 116 119 133 163 210 282 391
1350.0 556 756 961 1123 1261 1574 1984 1785 1383 1366
1390.0 1320 1106 857 665 511 426 422 405 362 344
1430.0 384 485 642 827 1016 1171 1294 1471 1756 1973
1470.0 1938 1762 1726 1724 1454 1240 1166 962 700 476
1510.0 317 232 187 167 150 130 119 104 101 95
1550.0 79 78 77 70 69 72 64 63 70 73
1590.0 68 61 66 74 72 72 73 64 63 66
1630.0 67 73 73 69 66 67 73 79 84 80
1670.0 76 80 79 85 76 63 64 69 70 67
1710.0 59 61 66 69 66 66 72 67 60 58
1750.0 61 61 57 54 54 59 57 64 63 52
1790.0 47 49 51 50 51 53 58 56 56 56
1830.0 50 43 42 46 51 46 29 28 42 42
1870.0 45 47 49 52 48 49 47 49 55 49
1910.0 41 43 46 41 39 41 40 33 39 44
1950.0 41 45 53 52 49 45 49 50 39 35
1990.0 32 27 28 28 29 32 33 31 31 35
2030.0 37 42 46 49 52 56 55 50 47 50
2070.0 44 30 29 32 31 26 20 21 21 29
2110.0 28 26 21 14 20 25 17 15 21 26
2150.0 20 19 20 24 29 25 23 23 28 26
2190.0 19 22 30 41 63 77 86 115 147 179
2230.0 210 235 251 265 251 220 193 149 95 54
2270.0 41 43 47 52 54 53 53 55 51 58
2310.0 58 48 49 55 45 29 26 30 30 25
2350.0 22 19 24 22 10 17 30 33 37 45
2390.0 43 42 47 54 59 71 81 78 79 83
2430.0 81 67 46 30 23 32 35 27 30 31
2470.0 30 37 44 38 39 38 36 31 28 31
2510.0 33 28 22 25 22 12 10 8 7 11
2550.0 24 32 27 30 38 35 45 59 62 59
2590.0 62 71 72 78 81 82 77 79 83 81
2630.0 83 68 50 48 57 57 51 41 39 37
2670.0 34 41 35 32 44 49 43 55 65 63
2710.0 64 63 71 82 91 100 103 108 110 102
2750.0 102 111 115 119 119 116 116 124 143 160
2790.0 169 182 192 204 223 235 237 234 242 243
2830.0 253 272 284 310 350 420 502 620 774 947
2870.0 1144 1317 1475 1672 1818 1848 1861 1897 1973 2065
2910.0 2135 2194 2288 2422 2568 2670 2696 2811 3080 3294
2950.0 3338 3442 3834 4573 5626 6740 7638 8242 9288 10000
2990.0 9228 7956 6768 5498 4027 2665 1657 1021 670 468
3030.0 354 294 250 226 212 202 197 193 180 164
3070.0 165 166 160 165 185 196 204 209 211 203
3110.0 189 201 216 213 210 201 186 175 161 159
3150.0 167 186 189 184 205 209 195 191 184 178
3190.0 175 182 172 144 154 163 150 159 160 154
3230.0 167 172 171 178 171 141 122 118 97 84
3270.0 80 82 74 63 51 55 74 60 59 60
3310.0 40 56 81 75 84 105 122 114 113 131
3350.0 136 124 110 106 117 116 102 99 97 63
3390.0 47 67 54 33 39 35 16 7 15 36
3430.0 35 26 50 61 51 41 55 74 53 33
3470.0 32 41 46 43 29 31 62 68 47 48
3510.0 51 55 71 53 41 44 37 43 55 85
3550.0 88 77 69 53 59 72 58 67 70 36
3590.0 35 49 26 40 49 41 60 60 56 61
3630.0 85 100 71 55 68 66 50 61 54 32
3670.0 34 44 45 48 60 68 67 47 47 66
3710.0 59 51 65 59 59 51 53 70 66 78
3750.0 69 37 23 24 23 51 61 55 65 61
3790.0 63 69 82 94 97 82 74 83 67 62
3830.0 55 50 64 64 73
##END=
