##TITLE=1-Bromo-2,2-dimethylpropane
##JCAMP-DX=4.24
##DATA TYPE=INFRARED SPECTRUM
##ORIGIN=NIST Mass Spectrometry Data Center
##OWNER=NIST Standard Reference Data Program
Collection (C) 2018 copyright by the U.S. Secretary of Commerce
on behalf of the United States of America. All rights reserved.
##CAS REGISTRY NO=630-17-1
##MOLFORM=C 5 H 11 Br
##$NIST SOURCE=MSDC-IR
##SPECTROMETER/DATA SYSTEM=HP-GC/MS/IRD
##STATE=gas
##XUNITS=1/CM
##YUNITS=ABSORBANCE
##XFACTOR=1.0
##YFACTOR=0.000001300
##DELTAX=4.0
##FIRSTX=550.0
##LASTX=3846.0
##FIRSTY=0.000268
##MAXX=3846
##MINX=550
##MAXY=0.013
##MINY=0
##NPOINTS=825
##XYDATA=(X++(Y..Y))
550.0 206 200 188 233 274 255 210 26 21 254
590.0 294 207 169 201 221 198 116 183 287 264
630.0 291 398 494 677 1025 1534 2038 2263 2384 2473
670.0 2223 1510 734 383 289 239 225 203 202 245
710.0 218 164 197 261 278 400 521 523 557 563
750.0 469 351 258 204 155 159 193 182 149 116
790.0 124 129 146 179 177 152 134 152 182 170
830.0 192 219 256 287 281 295 299 280 273 249
870.0 284 321 354 453 625 819 1002 1089 1070 1009
910.0 836 574 385 296 261 256 258 267 262 281
950.0 290 268 243 187 171 189 187 161 111 84
990.0 95 110 139 161 138 148 216 227 222 214
1030.0 212 252 229 165 152 199 220 147 86 112
1070.0 155 166 155 190 215 196 186 187 253 280
1110.0 277 306 311 317 304 250 205 245 278 284
1150.0 315 344 394 517 703 920 1122 1294 1389 1392
1190.0 1289 1071 860 690 593 568 561 562 534 587
1230.0 683 833 1099 1446 1837 2151 2309 2259 2127 1867
1270.0 1378 888 587 422 334 297 261 213 178 188
1310.0 193 167 180 201 214 212 221 276 349 475
1350.0 656 886 1156 1453 1708 1918 2009 1916 1772 1668
1390.0 1556 1399 1241 1119 932 689 542 500 512 539
1430.0 555 582 638 659 681 806 1008 1202 1378 1578
1470.0 1745 1771 1694 1541 1335 1108 861 610 440 338
1510.0 263 198 166 168 163 139 126 130 148 159
1550.0 133 120 141 142 133 143 145 143 129 126
1590.0 131 127 108 118 136 111 107 115 121 110
1630.0 116 142 139 132 138 132 111 110 119 102
1670.0 103 116 120 130 135 139 149 138 123 129
1710.0 132 117 112 105 83 85 92 87 82 57
1750.0 57 76 85 95 102 98 75 68 82 83
1790.0 83 93 92 86 96 88 78 83 67 70
1830.0 94 97 64 47 73 88 85 94 98 72
1870.0 60 76 75 60 68 92 93 81 86 82
1910.0 81 89 80 79 86 81 78 79 77 74
1950.0 71 67 79 83 76 84 85 74 70 83
1990.0 86 80 92 95 94 72 65 69 63 72
2030.0 56 51 65 63 56 70 75 69 69 56
2070.0 31 30 59 72 62 74 79 59 67 69
2110.0 77 100 95 84 73 73 72 67 59 68
2150.0 76 76 78 92 90 55 30 49 49 35
2190.0 51 54 58 53 39 34 39 54 52 54
2230.0 70 63 62 80 61 54 60 69 72 59
2270.0 66 63 63 69 69 57 62 62 61 76
2310.0 67 63 55 33 42 51 64 71 51 34
2350.0 38 36 37 33 25 40 48 52 47 25
2390.0 23 24 37 53 60 63 54 62 65 70
2430.0 72 62 54 35 35 49 37 18 57 52
2470.0 22 26 35 28 29 26 32 50 28 18
2510.0 33 44 50 51 27 7 4 3 9 21
2550.0 49 63 57 54 64 53 27 11 18 38
2590.0 46 44 23 0 4 13 23 42 51 25
2630.0 10 54 47 32 43 35 49 54 58 63
2670.0 46 61 84 64 64 79 65 43 62 93
2710.0 108 112 134 155 143 129 140 138 108 101
2750.0 115 128 115 117 106 110 130 106 113 128
2790.0 107 113 173 199 196 206 234 274 291 323
2830.0 355 378 445 514 625 756 866 1045 1300 1590
2870.0 1842 2082 2293 2405 2452 2482 2498 2504 2527 2585
2910.0 2633 2708 2826 2964 3099 3284 3598 4034 4610 5372
2950.0 6376 7551 8672 9546 9974 10000 9437 8164 6627 5216
2990.0 3964 2762 1877 1421 1154 953 771 588 432 367
3030.0 292 216 199 187 183 186 168 160 183 184
3070.0 173 212 217 198 219 187 171 192 181 155
3110.0 136 143 151 113 98 109 111 109 115 83
3150.0 79 131 145 122 120 132 133 133 169 133
3190.0 83 111 133 158 154 142 149 161 158 137
3230.0 93 89 87 70 91 52 40 89 98 73
3270.0 52 59 78 84 89 70 56 59 78 105
3310.0 124 138 87 31 25 46 61 68 64 72
3350.0 69 57 75 64 36 48 70 76 71 69
3390.0 77 86 96 94 96 75 53 41 37 49
3430.0 51 124 186 155 128 131 83 64 43 35
3470.0 86 102 96 76 86 93 55 81 93 60
3510.0 45 3 11 6 2 42 76 106 96 73
3550.0 59 48 33 69 84 52 25 45 77 94
3590.0 90 89 98 87 80 86 54 34 62 71
3630.0 113 91 80 145 166 140 68 72 112 64
3670.0 48 73 62 76 107 117 84 97 124 84
3710.0 53 77 56 45 70 80 101 105 95 96
3750.0 116 111 91 115 149 117 65 82 106 123
3790.0 106 53 54 61 65 95 87 85 114 121
3830.0 137 140 116 116 118
##END=
