##TITLE=DIKETENE
##JCAMP-DX=4.24
##DATA TYPE=INFRARED SPECTRUM
##CLASS=COBLENTZ
##ORIGIN=DOW CHEMICAL COMPANY
##OWNER=COBLENTZ SOC.
Collection (C) 2018 copyright by the U.S. Secretary of Commerce
on behalf of the United States of America. All rights reserved.
##DATE=1965/02/10
##NAMES=4-methylene-2-oxetanone
##CAS REGISTRY NO=674-82-8
##MOLFORM=C4 H4 O2
##SOURCE REFERENCE=COBLENTZ NO. 07595
##$NIST SOURCE=COBLENTZ
##$NIST IMAGE=cob7595
##SPECTROMETER/DATA SYSTEM=BECKMAN IR-9 (GRATING)
##INSTRUMENT PARAMETERS=ORDER CHANGES: 670, 1200, 2000 CM^-^1
##STATE=SOLUTION (CS2 FOR 3800-400 CM^-^1)
##PATH LENGTH=0.10 CM
$$SPECTRAL CONTAMINATION DUE TO CS2 AROUND 2800, 2300, 1600-1400, 850, 650 CM^-^1
##SAMPLING PROCEDURE=TRANSMISSION
##RESOLUTION=2
##DATA PROCESSING=DIGITIZED BY COBLENTZ SOCIETY (BATCH I) FROM HARD COPY
##XUNITS=1/CM
##YUNITS=TRANSMITTANCE
##XLABEL=Wavenumbers (cm-1)
##YLABEL=% Transmission
##XFACTOR=1
##YFACTOR=1
##DELTAX=1
##FIRSTX=381
##LASTX=3798
##FIRSTY=0.26
##MAXX=3798
##MINX=381
##MAXY=0.8556
##MINY=0.0028
##NPOINTS=3418
##XYDATA=(X++(Y..Y))
381.000000 0.2600 0.2587 0.2569 0.2551 0.2533
386.000000 0.2516 0.2485 0.2455 0.2423 0.2379
391.000000 0.2330 0.2281 0.2233 0.2178 0.2120
396.000000 0.2062 0.2004 0.1945 0.1887 0.1824
401.000000 0.1757 0.1689 0.1622 0.1555 0.1470
406.000000 0.1381 0.1291 0.1201 0.1113 0.1070
411.000000 0.1059 0.1048 0.1038 0.1040 0.1042
416.000000 0.1045 0.1048 0.1050 0.1053 0.1056
421.000000 0.1067 0.1078 0.1124 0.1172 0.1220
426.000000 0.1267 0.1315 0.1371 0.1437 0.1504
431.000000 0.1570 0.1635 0.1706 0.1777 0.1846
436.000000 0.1917 0.1984 0.2033 0.2083 0.2133
441.000000 0.2183 0.2233 0.2283 0.2333 0.2392
446.000000 0.2474 0.2555 0.2635 0.2714 0.2788
451.000000 0.2862 0.2935 0.3010 0.3084 0.3158
456.000000 0.3229 0.3293 0.3357 0.3421 0.3484
461.000000 0.3549 0.3608 0.3655 0.3703 0.3750
466.000000 0.3797 0.3844 0.3891 0.3938 0.3986
471.000000 0.4032 0.4084 0.4137 0.4189 0.4241
476.000000 0.4294 0.4346 0.4406 0.4466 0.4526
481.000000 0.4587 0.4647 0.4707 0.4759 0.4806
486.000000 0.4852 0.4899 0.4949 0.5004 0.5068
491.000000 0.5120 0.5171 0.5236 0.5274 0.5300
496.000000 0.5321 0.5321 0.5312 0.5302 0.5285
501.000000 0.5259 0.5233 0.5232 0.5231 0.5251
506.000000 0.5308 0.5410 0.5518 0.5635 0.5701
511.000000 0.5727 0.5753 0.5778 0.5790 0.5800
516.000000 0.5804 0.5797 0.5790 0.5783 0.5776
521.000000 0.5777 0.5779 0.5803 0.5841 0.5883
526.000000 0.5947 0.6018 0.6095 0.6134 0.6171
531.000000 0.6192 0.6212 0.6232 0.6249 0.6266
536.000000 0.6277 0.6287 0.6297 0.6308 0.6318
541.000000 0.6335 0.6338 0.6347 0.6355 0.6364
546.000000 0.6373 0.6382 0.6390 0.6399 0.6408
551.000000 0.6415 0.6424 0.6433 0.6441 0.6449
556.000000 0.6457 0.6465 0.6472 0.6481 0.6489
561.000000 0.6498 0.6506 0.6511 0.6515 0.6519
566.000000 0.6524 0.6528 0.6533 0.6537 0.6542
571.000000 0.6546 0.6550 0.6555 0.6556 0.6551
576.000000 0.6546 0.6541 0.6536 0.6532 0.6526
581.000000 0.6521 0.6514 0.6504 0.6494 0.6484
586.000000 0.6474 0.6465 0.6455 0.6445 0.6434
591.000000 0.6421 0.6411 0.6400 0.6389 0.6377
596.000000 0.6366 0.6355 0.6344 0.6333 0.6321
601.000000 0.6307 0.6294 0.6280 0.6267 0.6253
606.000000 0.6240 0.6226 0.6212 0.6199 0.6186
611.000000 0.6173 0.6158 0.6141 0.6124 0.6108
616.000000 0.6091 0.6074 0.6058 0.6041 0.6024
621.000000 0.6005 0.5970 0.5936 0.5901 0.5866
626.000000 0.5832 0.5797 0.5755 0.5697 0.5640
631.000000 0.5582 0.5525 0.5467 0.5389 0.5302
636.000000 0.5214 0.5127 0.5005 0.4847 0.4745
641.000000 0.4646 0.4536 0.4419 0.4304 0.4188
646.000000 0.4073 0.3964 0.3892 0.3820 0.3738
651.000000 0.3664 0.3618 0.3593 0.3596 0.3605
656.000000 0.3616 0.3664 0.3758 0.3859 0.3959
661.000000 0.4064 0.4174 0.4291 0.4418 0.4553
666.000000 0.4738 0.4870 0.4909 0.4937 0.4954
671.000000 0.4968 0.4983 0.4998 0.5017 0.5037
676.000000 0.5056 0.5076 0.5098 0.5120 0.5143
681.000000 0.5165 0.5191 0.5220 0.5249 0.5278
686.000000 0.5302 0.5319 0.5337 0.5355 0.5373
691.000000 0.5387 0.5398 0.5409 0.5420 0.5432
696.000000 0.5443 0.5454 0.5465 0.5476 0.5486
701.000000 0.5497 0.5508 0.5519 0.5531 0.5544
706.000000 0.5556 0.5569 0.5582 0.5595 0.5608
711.000000 0.5621 0.5637 0.5657 0.5677 0.5697
716.000000 0.5717 0.5737 0.5757 0.5786 0.5815
721.000000 0.5843 0.5874 0.5909 0.5945 0.5980
726.000000 0.6016 0.6049 0.6082 0.6114 0.6147
731.000000 0.6180 0.6212 0.6245 0.6278 0.6312
736.000000 0.6346 0.6381 0.6415 0.6451 0.6485
741.000000 0.6519 0.6555 0.6590 0.6621 0.6649
746.000000 0.6675 0.6703 0.6730 0.6756 0.6765
751.000000 0.6775 0.6786 0.6796 0.6806 0.6815
756.000000 0.6825 0.6836 0.6843 0.6849 0.6855
761.000000 0.6860 0.6865 0.6871 0.6875 0.6887
766.000000 0.6880 0.6882 0.6883 0.6884 0.6867
771.000000 0.6850 0.6833 0.6811 0.6788 0.6756
776.000000 0.6718 0.6682 0.6640 0.6593 0.6546
781.000000 0.6499 0.6451 0.6403 0.6355 0.6307
786.000000 0.6257 0.6200 0.6142 0.6085 0.6028
791.000000 0.5960 0.5887 0.5815 0.5720 0.5585
796.000000 0.5243 0.4656 0.4068 0.3480 0.2894
801.000000 0.2173 0.2170 0.2396 0.2898 0.3399
806.000000 0.3900 0.4401 0.4902 0.5347 0.5544
811.000000 0.5701 0.5810 0.5910 0.5958 0.5998
816.000000 0.6010 0.6022 0.6022 0.6022 0.6008
821.000000 0.5982 0.5925 0.5854 0.5741 0.5612
826.000000 0.5439 0.5066 0.4641 0.4216 0.3791
831.000000 0.3366 0.2941 0.2515 0.2090 0.1828
836.000000 0.1779 0.1768 0.1766 0.1840 0.1963
841.000000 0.2057 0.2055 0.2048 0.2037 0.2004
846.000000 0.1895 0.1750 0.1359 0.1184 0.1032
851.000000 0.0869 0.0811 0.0789 0.0778 0.0768
856.000000 0.0762 0.0755 0.0749 0.0747 0.0746
861.000000 0.0746 0.0742 0.0713 0.0634 0.0554
866.000000 0.0471 0.0387 0.0291 0.0200 0.0121
871.000000 0.0073 0.0058 0.0064 0.0075 0.0105
876.000000 0.0245 0.0641 0.1036 0.1431 0.1827
881.000000 0.2222 0.2618 0.3013 0.3332 0.3437
886.000000 0.3548 0.3690 0.3928 0.4121 0.4304
891.000000 0.4608 0.4969 0.5247 0.5496 0.5732
896.000000 0.5874 0.6007 0.6321 0.6478 0.6618
901.000000 0.6744 0.6828 0.6912 0.6998 0.7072
906.000000 0.7134 0.7196 0.7258 0.7314 0.7356
911.000000 0.7398 0.7439 0.7481 0.7521 0.7562
916.000000 0.7596 0.7630 0.7662 0.7697 0.7730
921.000000 0.7761 0.7791 0.7819 0.7849 0.7875
926.000000 0.7897 0.7917 0.7938 0.7957 0.7974
931.000000 0.7991 0.8008 0.8024 0.8039 0.8041
936.000000 0.8043 0.8045 0.8051 0.8042 0.8032
941.000000 0.8022 0.8006 0.7988 0.7982 0.7980
946.000000 0.7978 0.7975 0.7972 0.7969 0.7965
951.000000 0.7962 0.7950 0.7930 0.7896 0.7857
956.000000 0.7805 0.7746 0.7719 0.7724 0.7737
961.000000 0.7750 0.7791 0.7831 0.7868 0.7911
966.000000 0.7947 0.7964 0.7964 0.7964 0.8012
971.000000 0.7940 0.7918 0.7876 0.7826 0.7758
976.000000 0.7687 0.7574 0.7451 0.7353 0.7258
981.000000 0.7201 0.7180 0.7169 0.7160 0.7147
986.000000 0.7126 0.7061 0.6926 0.6775 0.6553
991.000000 0.6314 0.5699 0.5531 0.5389 0.5262
996.000000 0.4779 0.4026 0.3274 0.2521 0.1768
1001.000000 0.1517 0.1472 0.1452 0.1444 0.1446
1006.000000 0.1518 0.1846 0.2177 0.2507 0.2837
1011.000000 0.3166 0.3496 0.3826 0.4155 0.4436
1016.000000 0.4553 0.4762 0.5058 0.5269 0.5441
1021.000000 0.5757 0.6003 0.6158 0.6329 0.6471
1026.000000 0.6574 0.6676 0.6786 0.6896 0.7010
1031.000000 0.7101 0.7154 0.7206 0.7251 0.7278
1036.000000 0.7306 0.7333 0.7360 0.7371 0.7383
1041.000000 0.7394 0.7405 0.7415 0.7424 0.7428
1046.000000 0.7433 0.7438 0.7446 0.7453 0.7472
1051.000000 0.7499 0.7534 0.7578 0.7626 0.7678
1056.000000 0.7728 0.7758 0.7772 0.7788 0.7801
1061.000000 0.7814 0.7821 0.7830 0.7838 0.7846
1066.000000 0.7854 0.7861 0.7868 0.7874 0.7878
1071.000000 0.7883 0.7887 0.7892 0.7893 0.7894
1076.000000 0.7895 0.7896 0.7897 0.7897 0.7908
1081.000000 0.7891 0.7887 0.7884 0.7880 0.7865
1086.000000 0.7846 0.7825 0.7800 0.7771 0.7745
1091.000000 0.7700 0.7651 0.7603 0.7547 0.7511
1096.000000 0.7501 0.7500 0.7490 0.7515 0.7532
1101.000000 0.7548 0.7565 0.7585 0.7603 0.7625
1106.000000 0.7651 0.7678 0.7715 0.7754 0.7794
1111.000000 0.7839 0.7883 0.7919 0.7949 0.7961
1116.000000 0.7971 0.7978 0.7983 0.7976 0.7968
1121.000000 0.7950 0.7912 0.7858 0.7824 0.7818
1126.000000 0.7818 0.7826 0.7856 0.7912 0.7999
1131.000000 0.8138 0.8198 0.8244 0.8265 0.8286
1136.000000 0.8302 0.8310 0.8318 0.8325 0.8333
1141.000000 0.8333 0.8334 0.8343 0.8328 0.8327
1146.000000 0.8324 0.8318 0.8315 0.8311 0.8307
1151.000000 0.8302 0.8290 0.8277 0.8263 0.8249
1156.000000 0.8236 0.8221 0.8208 0.8195 0.8182
1161.000000 0.8168 0.8155 0.8139 0.8121 0.8104
1166.000000 0.8076 0.8039 0.8001 0.7968 0.7934
1171.000000 0.7907 0.7887 0.7865 0.7850 0.7846
1176.000000 0.7843 0.7834 0.7835 0.7838 0.7843
1181.000000 0.7853 0.7887 0.7921 0.7957 0.7976
1186.000000 0.7997 0.8015 0.8036 0.8039 0.8039
1191.000000 0.8039 0.8028 0.8019 0.8008 0.7993
1196.000000 0.7984 0.7978 0.7978 0.7981 0.7999
1201.000000 0.8046 0.8092 0.8118 0.8132 0.8132
1206.000000 0.8131 0.8130 0.8101 0.8045 0.7997
1211.000000 0.7949 0.7891 0.7824 0.7750 0.7675
1216.000000 0.7600 0.7522 0.7446 0.7368 0.7294
1221.000000 0.7221 0.7149 0.7076 0.6968 0.6846
1226.000000 0.6661 0.6062 0.5508 0.4586 0.3750
1231.000000 0.2915 0.2080 0.1891 0.1887 0.1886
1236.000000 0.1886 0.2706 0.3722 0.4738 0.5494
1241.000000 0.5955 0.6237 0.6399 0.6585 0.6764
1246.000000 0.6900 0.7042 0.7208 0.7358 0.7491
1251.000000 0.7596 0.7682 0.7749 0.7801 0.7835
1256.000000 0.7842 0.7850 0.7851 0.7853 0.7855
1261.000000 0.7856 0.7858 0.7875 0.7892 0.7933
1266.000000 0.7982 0.8039 0.8081 0.8115 0.8147
1271.000000 0.8165 0.8182 0.8200 0.8216 0.8225
1276.000000 0.8235 0.8244 0.8253 0.8258 0.8264
1281.000000 0.8268 0.8273 0.8273 0.8274 0.8274
1286.000000 0.8275 0.8275 0.8275 0.8273 0.8268
1291.000000 0.8266 0.8263 0.8259 0.8256 0.8253
1296.000000 0.8247 0.8240 0.8234 0.8227 0.8221
1301.000000 0.8214 0.8203 0.8191 0.8180 0.8168
1306.000000 0.8157 0.8145 0.8130 0.8114 0.8098
1311.000000 0.8082 0.8065 0.8050 0.8034 0.8018
1316.000000 0.7999 0.7981 0.7962 0.7945 0.7926
1321.000000 0.7905 0.7878 0.7851 0.7825 0.7798
1326.000000 0.7771 0.7741 0.7708 0.7676 0.7644
1331.000000 0.7611 0.7580 0.7553 0.7525 0.7498
1336.000000 0.7469 0.7425 0.7345 0.7214 0.7118
1341.000000 0.7018 0.6939 0.6932 0.6926 0.6921
1346.000000 0.6914 0.6908 0.6855 0.6747 0.6600
1351.000000 0.6431 0.6256 0.6096 0.5920 0.5703
1356.000000 0.5281 0.5173 0.5065 0.4958 0.4860
1361.000000 0.4762 0.4664 0.4566 0.4458 0.4188
1366.000000 0.4078 0.4007 0.3934 0.3862 0.3797
1371.000000 0.3766 0.3732 0.3695 0.3647 0.3570
1376.000000 0.3495 0.3420 0.3327 0.3216 0.3000
1381.000000 0.2406 0.2150 0.2028 0.1906 0.1784
1386.000000 0.1640 0.1459 0.1277 0.1128 0.0983
1391.000000 0.0869 0.0778 0.0687 0.0617 0.0547
1396.000000 0.0491 0.0437 0.0386 0.0336 0.0280
1401.000000 0.0225 0.0182 0.0141 0.0109 0.0081
1406.000000 0.0056 0.0039 0.0039 0.0039 0.0039
1411.000000 0.0039 0.0039 0.0039 0.0039 0.0039
1416.000000 0.0039 0.0039 0.0039 0.0039 0.0039
1421.000000 0.0039 0.0038 0.0038 0.0038 0.0038
1426.000000 0.0038 0.0038 0.0038 0.0038 0.0038
1431.000000 0.0038 0.0038 0.0038 0.0038 0.0038
1436.000000 0.0038 0.0038 0.0038 0.0038 0.0037
1441.000000 0.0037 0.0037 0.0037 0.0037 0.0037
1446.000000 0.0037 0.0037 0.0037 0.0037 0.0037
1451.000000 0.0037 0.0037 0.0037 0.0037 0.0037
1456.000000 0.0037 0.0037 0.0036 0.0036 0.0036
1461.000000 0.0036 0.0036 0.0036 0.0036 0.0036
1466.000000 0.0036 0.0036 0.0036 0.0036 0.0036
1471.000000 0.0036 0.0036 0.0036 0.0036 0.0036
1476.000000 0.0035 0.0035 0.0035 0.0035 0.0035
1481.000000 0.0035 0.0035 0.0035 0.0035 0.0035
1486.000000 0.0035 0.0035 0.0035 0.0035 0.0035
1491.000000 0.0035 0.0035 0.0035 0.0035 0.0034
1496.000000 0.0034 0.0034 0.0034 0.0034 0.0034
1501.000000 0.0034 0.0034 0.0034 0.0034 0.0034
1506.000000 0.0034 0.0034 0.0034 0.0034 0.0034
1511.000000 0.0034 0.0034 0.0033 0.0033 0.0033
1516.000000 0.0033 0.0033 0.0033 0.0033 0.0033
1521.000000 0.0033 0.0033 0.0033 0.0033 0.0033
1526.000000 0.0033 0.0033 0.0033 0.0033 0.0033
1531.000000 0.0032 0.0032 0.0032 0.0032 0.0032
1536.000000 0.0032 0.0032 0.0032 0.0032 0.0032
1541.000000 0.0032 0.0032 0.0032 0.0032 0.0032
1546.000000 0.0032 0.0032 0.0032 0.0031 0.0031
1551.000000 0.0031 0.0031 0.0031 0.0031 0.0031
1556.000000 0.0031 0.0031 0.0031 0.0031 0.0031
1561.000000 0.0031 0.0031 0.0031 0.0031 0.0031
1566.000000 0.0031 0.0030 0.0030 0.0030 0.0030
1571.000000 0.0030 0.0030 0.0030 0.0030 0.0030
1576.000000 0.0030 0.0030 0.0030 0.0030 0.0030
1581.000000 0.0030 0.0030 0.0030 0.0030 0.0030
1586.000000 0.0029 0.0029 0.0029 0.0029 0.0029
1591.000000 0.0029 0.0029 0.0029 0.0029 0.0029
1596.000000 0.0029 0.0029 0.0029 0.0029 0.0029
1601.000000 0.0029 0.0029 0.0029 0.0028 0.0028
1606.000000 0.0028 0.0028 0.0028 0.0028 0.0030
1611.000000 0.0048 0.0081 0.0119 0.0157 0.0194
1616.000000 0.0236 0.0281 0.0327 0.0386 0.0450
1621.000000 0.0526 0.0606 0.0691 0.0809 0.0950
1626.000000 0.1090 0.1231 0.1371 0.1512 0.1652
1631.000000 0.1792 0.1933 0.2073 0.2214 0.2354
1636.000000 0.2495 0.2634 0.2775 0.2916 0.3056
1641.000000 0.3197 0.3353 0.3450 0.3542 0.3624
1646.000000 0.3707 0.3775 0.3840 0.3904 0.3957
1651.000000 0.4005 0.4044 0.4066 0.4088 0.4104
1656.000000 0.4116 0.4091 0.4097 0.4064 0.3864
1661.000000 0.3625 0.3387 0.3148 0.2909 0.2670
1666.000000 0.2431 0.2193 0.2095 0.2039 0.2039
1671.000000 0.2037 0.2213 0.2479 0.2745 0.3011
1676.000000 0.3277 0.3543 0.3809 0.4075 0.4341
1681.000000 0.4607 0.4709 0.4779 0.5028 0.5162
1686.000000 0.5300 0.5389 0.5410 0.5416 0.5424
1691.000000 0.5418 0.5398 0.5305 0.5219 0.5144
1696.000000 0.4783 0.3996 0.3208 0.2421 0.1634
1701.000000 0.0985 0.0889 0.0781 0.0657 0.0636
1706.000000 0.0629 0.0649 0.1199 0.1979 0.2760
1711.000000 0.3541 0.4322 0.5103 0.5873 0.6086
1716.000000 0.6237 0.6345 0.6451 0.6525 0.6593
1721.000000 0.6661 0.6700 0.6737 0.6772 0.6806
1726.000000 0.6824 0.6842 0.6843 0.6843 0.6848
1731.000000 0.6819 0.6801 0.6731 0.6640 0.6560
1736.000000 0.6496 0.6262 0.5971 0.5680 0.5388
1741.000000 0.5097 0.4805 0.4514 0.4223 0.3930
1746.000000 0.3640 0.3349 0.3204 0.3205 0.3200
1751.000000 0.3959 0.4582 0.5204 0.5826 0.6296
1756.000000 0.6486 0.6796 0.7011 0.7172 0.7289
1761.000000 0.7386 0.7461 0.7536 0.7611 0.7675
1766.000000 0.7736 0.7797 0.7858 0.7921 0.7983
1771.000000 0.8043 0.8095 0.8137 0.8158 0.8178
1776.000000 0.8183 0.8183 0.8183 0.8171 0.8143
1781.000000 0.8103 0.8085 0.8075 0.8075 0.8085
1786.000000 0.8118 0.8208 0.8327 0.8430 0.8462
1791.000000 0.8487 0.8499 0.8512 0.8524 0.8528
1796.000000 0.8533 0.8538 0.8542 0.8547 0.8551
1801.000000 0.8555 0.8556 0.8556 0.8555 0.8555
1806.000000 0.8554 0.8552 0.8552 0.8550 0.8549
1811.000000 0.8548 0.8547 0.8543 0.8536 0.8530
1816.000000 0.8524 0.8518 0.8511 0.8503 0.8491
1821.000000 0.8477 0.8456 0.8436 0.8412 0.8389
1826.000000 0.8365 0.8321 0.8275 0.8228 0.8176
1831.000000 0.8133 0.8121 0.8110 0.8097 0.8084
1836.000000 0.8060 0.7984 0.7886 0.7803 0.7708
1841.000000 0.7611 0.7326 0.6998 0.6669 0.6342
1846.000000 0.6014 0.5685 0.5431 0.5277 0.5078
1851.000000 0.4937 0.4447 0.4265 0.3854 0.3442
1856.000000 0.3031 0.2619 0.2208 0.1796 0.1540
1861.000000 0.1533 0.1569 0.1993 0.2556 0.3118
1866.000000 0.3680 0.4242 0.4916 0.5056 0.5170
1871.000000 0.5232 0.5294 0.5327 0.5353 0.5367
1876.000000 0.5368 0.5369 0.5325 0.5022 0.4639
1881.000000 0.4255 0.3872 0.3489 0.3105 0.2722
1886.000000 0.2339 0.1954 0.1572 0.1188 0.0805
1891.000000 0.0425 0.0370 0.0345 0.0320 0.0321
1896.000000 0.0322 0.0322 0.0322 0.1320 0.2318
1901.000000 0.2853 0.2993 0.3244 0.3446 0.3853
1906.000000 0.4615 0.4812 0.4977 0.5135 0.5287
1911.000000 0.5391 0.5494 0.5627 0.5796 0.6024
1916.000000 0.6124 0.6224 0.6328 0.6435 0.6554
1921.000000 0.6715 0.6838 0.6912 0.6974 0.7015
1926.000000 0.7058 0.7096 0.7131 0.7165 0.7201
1931.000000 0.7235 0.7269 0.7301 0.7330 0.7358
1936.000000 0.7387 0.7415 0.7444 0.7472 0.7501
1941.000000 0.7531 0.7561 0.7574 0.7584 0.7592
1946.000000 0.7595 0.7597 0.7596 0.7596 0.7588
1951.000000 0.7580 0.7572 0.7565 0.7549 0.7533
1956.000000 0.7517 0.7501 0.7484 0.7474 0.7472
1961.000000 0.7495 0.7518 0.7551 0.7585 0.7621
1966.000000 0.7658 0.7689 0.7721 0.7738 0.7745
1971.000000 0.7751 0.7758 0.7761 0.7768 0.7767
1976.000000 0.7765 0.7754 0.7738 0.7722 0.7678
1981.000000 0.7665 0.7658 0.7650 0.7642 0.7635
1986.000000 0.7633 0.7633 0.7632 0.7632 0.7628
1991.000000 0.7622 0.7608 0.7564 0.7514 0.7462
1996.000000 0.7408 0.7347 0.7287 0.7078 0.6999
2001.000000 0.6989 0.6962 0.6980 0.6982 0.7000
2006.000000 0.7018 0.7051 0.7083 0.7128 0.7174
2011.000000 0.7246 0.7318 0.7391 0.7462 0.7494
2016.000000 0.7525 0.7539 0.7553 0.7564 0.7575
2021.000000 0.7580 0.7585 0.7585 0.7584 0.7583
2026.000000 0.7581 0.7575 0.7560 0.7560 0.7561
2031.000000 0.7555 0.7550 0.7544 0.7539 0.7530
2036.000000 0.7521 0.7508 0.7496 0.7483 0.7469
2041.000000 0.7451 0.7435 0.7417 0.7400 0.7380
2046.000000 0.7361 0.7339 0.7317 0.7294 0.7271
2051.000000 0.7244 0.7215 0.7185 0.7155 0.7124
2056.000000 0.7094 0.7062 0.7033 0.6995 0.6958
2061.000000 0.6918 0.6881 0.6842 0.6804 0.6765
2066.000000 0.6725 0.6664 0.6603 0.6534 0.6465
2071.000000 0.6330 0.6194 0.5505 0.4817 0.4721
2076.000000 0.4626 0.4434 0.4242 0.4059 0.3878
2081.000000 0.3695 0.3512 0.3330 0.3148 0.2966
2086.000000 0.2784 0.2601 0.2419 0.2237 0.2055
2091.000000 0.1872 0.1690 0.1507 0.1325 0.1142
2096.000000 0.0961 0.0778 0.0596 0.0414 0.0232
2101.000000 0.0134 0.0038 0.0038 0.0038 0.0038
2106.000000 0.0038 0.0038 0.0038 0.0038 0.0038
2111.000000 0.0038 0.0038 0.0037 0.0037 0.0037
2116.000000 0.0037 0.0037 0.0037 0.0037 0.0037
2121.000000 0.0037 0.0037 0.0037 0.0037 0.0037
2126.000000 0.0037 0.0036 0.0036 0.0036 0.0036
2131.000000 0.0036 0.0036 0.0036 0.0036 0.0036
2136.000000 0.0036 0.0036 0.0036 0.0036 0.0036
2141.000000 0.0035 0.0035 0.0035 0.0035 0.0035
2146.000000 0.0035 0.0035 0.0035 0.0035 0.0035
2151.000000 0.0035 0.0035 0.0035 0.0035 0.0034
2156.000000 0.0034 0.0034 0.0034 0.0034 0.0034
2161.000000 0.0034 0.0034 0.0034 0.0034 0.0034
2166.000000 0.0034 0.0034 0.0034 0.0033 0.0033
2171.000000 0.0033 0.0033 0.0033 0.0033 0.0033
2176.000000 0.0033 0.0033 0.0033 0.0033 0.0033
2181.000000 0.0033 0.0033 0.0032 0.0032 0.0032
2186.000000 0.0032 0.0032 0.0032 0.0032 0.0032
2191.000000 0.0032 0.0032 0.0032 0.0032 0.0033
2196.000000 0.0034 0.0078 0.0122 0.0158 0.0194
2201.000000 0.0250 0.0306 0.0347 0.0389 0.0443
2206.000000 0.0497 0.0655 0.0814 0.0939 0.1066
2211.000000 0.1156 0.1246 0.1971 0.2697 0.2774
2216.000000 0.2851 0.2932 0.3013 0.3096 0.3179
2221.000000 0.3250 0.3324 0.3396 0.3468 0.3532
2226.000000 0.3598 0.3657 0.3716 0.3776 0.3834
2231.000000 0.3897 0.3959 0.4024 0.4090 0.4148
2236.000000 0.4207 0.4250 0.4294 0.4318 0.4393
2241.000000 0.4358 0.4375 0.4379 0.4383 0.4383
2246.000000 0.4383 0.4378 0.4373 0.4358 0.4344
2251.000000 0.4287 0.4231 0.4034 0.3840 0.3644
2256.000000 0.3449 0.3253 0.3058 0.2863 0.2668
2261.000000 0.2472 0.2277 0.2081 0.1885 0.1690
2266.000000 0.1495 0.1291 0.1088 0.1024 0.0961
2271.000000 0.0901 0.0841 0.0768 0.0695 0.0567
2276.000000 0.0439 0.0353 0.0266 0.0221 0.0175
2281.000000 0.0146 0.0118 0.0102 0.0087 0.0079
2286.000000 0.0072 0.0070 0.0068 0.0066 0.0065
2291.000000 0.0065 0.0065 0.0065 0.0066 0.0066
2296.000000 0.0066 0.0069 0.0072 0.0076 0.0081
2301.000000 0.0087 0.0094 0.0101 0.0109 0.0120
2306.000000 0.0132 0.0145 0.0159 0.0175 0.0192
2311.000000 0.0208 0.0225 0.0248 0.0271 0.0296
2316.000000 0.0321 0.0353 0.0385 0.0425 0.0467
2321.000000 0.0519 0.0572 0.0655 0.0738 0.0925
2326.000000 0.1112 0.1299 0.1486 0.1673 0.1861
2331.000000 0.2048 0.2234 0.2422 0.2610 0.2782
2336.000000 0.2954 0.3012 0.3070 0.3143 0.3216
2341.000000 0.3376 0.3536 0.3710 0.3886 0.4169
2346.000000 0.4453 0.4572 0.4692 0.4883 0.5075
2351.000000 0.5170 0.5266 0.5335 0.5404 0.5473
2356.000000 0.5542 0.5605 0.5669 0.5726 0.5783
2361.000000 0.5840 0.5898 0.5955 0.6012 0.6066
2366.000000 0.6120 0.6173 0.6226 0.6279 0.6332
2371.000000 0.6380 0.6428 0.6475 0.6521 0.6568
2376.000000 0.6615 0.6651 0.6688 0.6715 0.6745
2381.000000 0.6772 0.6801 0.6818 0.6837 0.6850
2386.000000 0.6864 0.6876 0.6891 0.6900 0.6910
2391.000000 0.6918 0.6928 0.6938 0.6948 0.6957
2396.000000 0.6965 0.6975 0.6984 0.6993 0.7001
2401.000000 0.7011 0.7019 0.7028 0.7038 0.7047
2406.000000 0.7056 0.7065 0.7074 0.7083 0.7092
2411.000000 0.7097 0.7101 0.7105 0.7108 0.7111
2416.000000 0.7115 0.7119 0.7124 0.7126 0.7131
2421.000000 0.7134 0.7138 0.7141 0.7145 0.7149
2426.000000 0.7153 0.7156 0.7158 0.7161 0.7162
2431.000000 0.7165 0.7167 0.7168 0.7171 0.7172
2436.000000 0.7175 0.7176 0.7178 0.7181 0.7183
2441.000000 0.7183 0.7183 0.7182 0.7182 0.7182
2446.000000 0.7182 0.7181 0.7181 0.7181 0.7181
2451.000000 0.7180 0.7180 0.7178 0.7178 0.7178
2456.000000 0.7178 0.7178 0.7176 0.7175 0.7175
2461.000000 0.7172 0.7171 0.7171 0.7169 0.7168
2466.000000 0.7167 0.7165 0.7165 0.7162 0.7161
2471.000000 0.7161 0.7160 0.7158 0.7157 0.7156
2476.000000 0.7155 0.7153 0.7151 0.7151 0.7150
2481.000000 0.7148 0.7147 0.7146 0.7145 0.7143
2486.000000 0.7142 0.7141 0.7140 0.7138 0.7137
2491.000000 0.7135 0.7134 0.7133 0.7132 0.7130
2496.000000 0.7128 0.7128 0.7126 0.7125 0.7124
2501.000000 0.7122 0.7121 0.7119 0.7118 0.7117
2506.000000 0.7115 0.7115 0.7114 0.7111 0.7111
2511.000000 0.7110 0.7108 0.7107 0.7106 0.7104
2516.000000 0.7103 0.7101 0.7100 0.7098 0.7097
2521.000000 0.7095 0.7094 0.7092 0.7091 0.7089
2526.000000 0.7088 0.7086 0.7085 0.7083 0.7082
2531.000000 0.7080 0.7078 0.7076 0.7075 0.7072
2536.000000 0.7071 0.7069 0.7068 0.7067 0.7065
2541.000000 0.7064 0.7062 0.7061 0.7060 0.7058
2546.000000 0.7057 0.7055 0.7054 0.7051 0.7051
2551.000000 0.7049 0.7048 0.7046 0.7045 0.7043
2556.000000 0.7042 0.7040 0.7039 0.7037 0.7035
2561.000000 0.7033 0.7032 0.7030 0.7028 0.7025
2566.000000 0.7025 0.7022 0.7021 0.7018 0.7018
2571.000000 0.7015 0.7014 0.7011 0.7011 0.7008
2576.000000 0.7007 0.7005 0.7004 0.7001 0.7000
2581.000000 0.6998 0.6997 0.6995 0.6993 0.6991
2586.000000 0.6990 0.6988 0.6986 0.6984 0.6983
2591.000000 0.6981 0.6978 0.6976 0.6975 0.6974
2596.000000 0.6971 0.6969 0.6968 0.6967 0.6965
2601.000000 0.6964 0.6962 0.6961 0.6960 0.6958
2606.000000 0.6957 0.6955 0.6954 0.6951 0.6951
2611.000000 0.6950 0.6949 0.6947 0.6946 0.6944
2616.000000 0.6943 0.6941 0.6940 0.6938 0.6937
2621.000000 0.6935 0.6934 0.6932 0.6931 0.6928
2626.000000 0.6926 0.6925 0.6924 0.6921 0.6919
2631.000000 0.6918 0.6915 0.6914 0.6911 0.6910
2636.000000 0.6908 0.6906 0.6905 0.6903 0.6901
2641.000000 0.6899 0.6897 0.6895 0.6893 0.6891
2646.000000 0.6890 0.6888 0.6886 0.6884 0.6882
2651.000000 0.6880 0.6878 0.6875 0.6874 0.6871
2656.000000 0.6871 0.6868 0.6867 0.6865 0.6862
2661.000000 0.6860 0.6858 0.6856 0.6854 0.6851
2666.000000 0.6849 0.6847 0.6845 0.6842 0.6840
2671.000000 0.6838 0.6836 0.6833 0.6831 0.6828
2676.000000 0.6826 0.6825 0.6822 0.6819 0.6818
2681.000000 0.6815 0.6814 0.6811 0.6808 0.6807
2686.000000 0.6805 0.6801 0.6800 0.6798 0.6796
2691.000000 0.6793 0.6791 0.6789 0.6787 0.6784
2696.000000 0.6781 0.6776 0.6774 0.6769 0.6767
2701.000000 0.6762 0.6760 0.6757 0.6754 0.6750
2706.000000 0.6747 0.6743 0.6740 0.6737 0.6734
2711.000000 0.6725 0.6718 0.6711 0.6704 0.6697
2716.000000 0.6690 0.6682 0.6675 0.6665 0.6657
2721.000000 0.6646 0.6636 0.6625 0.6615 0.6604
2726.000000 0.6594 0.6584 0.6574 0.6561 0.6551
2731.000000 0.6537 0.6524 0.6510 0.6497 0.6483
2736.000000 0.6469 0.6457 0.6444 0.6426 0.6410
2741.000000 0.6387 0.6364 0.6341 0.6318 0.6290
2746.000000 0.6262 0.6228 0.6195 0.6160 0.6128
2751.000000 0.6090 0.6053 0.6007 0.5962 0.5917
2756.000000 0.5872 0.5826 0.5781 0.5735 0.5690
2761.000000 0.5657 0.5624 0.5593 0.5562 0.5530
2766.000000 0.5499 0.5464 0.5430 0.4951 0.4473
2771.000000 0.4421 0.4369 0.4346 0.4324 0.4301
2776.000000 0.4278 0.4256 0.4235 0.4220 0.4205
2781.000000 0.4191 0.4177 0.4159 0.4142 0.4117
2786.000000 0.4092 0.4016 0.3941 0.3859 0.3777
2791.000000 0.3695 0.3612 0.3530 0.3449 0.3366
2796.000000 0.3284 0.3203 0.3121 0.3039 0.2957
2801.000000 0.2934 0.2913 0.2913 0.2913 0.3065
2806.000000 0.3216 0.3388 0.3559 0.3730 0.3902
2811.000000 0.4073 0.4244 0.4383 0.4522 0.4587
2816.000000 0.4653 0.4710 0.4768 0.4823 0.4878
2821.000000 0.4924 0.4971 0.5003 0.5036 0.5068
2826.000000 0.5101 0.5138 0.5176 0.5248 0.5321
2831.000000 0.5362 0.5406 0.5436 0.5467 0.5498
2836.000000 0.5529 0.5549 0.5570 0.5577 0.5584
2841.000000 0.5591 0.5599 0.5601 0.5603 0.5604
2846.000000 0.5606 0.5607 0.5609 0.5610 0.5610
2851.000000 0.5612 0.5614 0.5622 0.5631 0.5640
2856.000000 0.5649 0.5788 0.5928 0.5938 0.5949
2861.000000 0.5959 0.5970 0.5980 0.5991 0.6001
2866.000000 0.6012 0.6018 0.6024 0.6026 0.6028
2871.000000 0.6030 0.6033 0.6035 0.6037 0.6039
2876.000000 0.6041 0.6042 0.6042 0.6029 0.6025
2881.000000 0.6020 0.6016 0.6010 0.6007 0.5998
2886.000000 0.5989 0.5977 0.5965 0.5951 0.5938
2891.000000 0.5912 0.5888 0.5862 0.5837 0.5810
2896.000000 0.5786 0.5754 0.5723 0.5690 0.5657
2901.000000 0.5622 0.5588 0.5537 0.5487 0.5436
2906.000000 0.5386 0.5333 0.5281 0.5224 0.5168
2911.000000 0.5076 0.4984 0.4892 0.4801 0.4709
2916.000000 0.4617 0.4525 0.4434 0.4347 0.4260
2921.000000 0.4260 0.4260 0.4264 0.4235 0.4287
2926.000000 0.4307 0.4379 0.4451 0.4541 0.4632
2931.000000 0.4722 0.4812 0.4896 0.4979 0.5049
2936.000000 0.5119 0.5193 0.5267 0.5326 0.5386
2941.000000 0.5406 0.5426 0.5436 0.5446 0.5456
2946.000000 0.5467 0.5475 0.5484 0.5488 0.5493
2951.000000 0.5497 0.5502 0.5507 0.5512 0.5522
2956.000000 0.5533 0.5544 0.5555 0.5566 0.5577
2961.000000 0.5593 0.5610 0.5628 0.5646 0.5664
2966.000000 0.5683 0.5707 0.5731 0.5755 0.5779
2971.000000 0.5809 0.5840 0.5877 0.5915 0.5942
2976.000000 0.5970 0.5983 0.5997 0.6010 0.6024
2981.000000 0.6027 0.6030 0.6032 0.6034 0.6036
2986.000000 0.6038 0.6038 0.6038 0.6038 0.6039
2991.000000 0.6039 0.6039 0.6038 0.6037 0.6036
2996.000000 0.6036 0.6035 0.6034 0.6034 0.6034
3001.000000 0.6037 0.6040 0.6042 0.6045 0.6048
3006.000000 0.6051 0.6054 0.6057 0.6060 0.6065
3011.000000 0.6068 0.6072 0.6076 0.6080 0.6082
3016.000000 0.6083 0.6083 0.6083 0.6083 0.6083
3021.000000 0.6082 0.6082 0.6082 0.6082 0.6081
3026.000000 0.6081 0.6081 0.6081 0.6080 0.6080
3031.000000 0.6079 0.6079 0.6079 0.6079 0.6078
3036.000000 0.6078 0.6078 0.6078 0.6077 0.6077
3041.000000 0.6076 0.6076 0.6076 0.6076 0.6075
3046.000000 0.6074 0.6073 0.6072 0.6070 0.6069
3051.000000 0.6068 0.6067 0.6065 0.6064 0.6062
3056.000000 0.6062 0.6060 0.6059 0.6058 0.6057
3061.000000 0.6055 0.6054 0.6053 0.6052 0.6050
3066.000000 0.6049 0.6048 0.6047 0.6045 0.6043
3071.000000 0.6041 0.6039 0.6037 0.6035 0.6033
3076.000000 0.6031 0.6029 0.6027 0.6025 0.6023
3081.000000 0.6021 0.6019 0.6017 0.6015 0.6012
3086.000000 0.6010 0.6009 0.6007 0.6005 0.6003
3091.000000 0.6001 0.5999 0.5997 0.5995 0.5993
3096.000000 0.5991 0.5989 0.5988 0.5986 0.5984
3101.000000 0.5982 0.5981 0.5979 0.5977 0.5975
3106.000000 0.5974 0.5972 0.5970 0.5968 0.5969
3111.000000 0.5969 0.5971 0.5973 0.5975 0.5977
3116.000000 0.5979 0.5981 0.5984 0.5986 0.5989
3121.000000 0.5992 0.5995 0.5997 0.6000 0.6001
3126.000000 0.6001 0.6001 0.6000 0.5999 0.5998
3131.000000 0.5997 0.5996 0.5995 0.5994 0.5993
3136.000000 0.5992 0.5991 0.5990 0.5989 0.5988
3141.000000 0.5987 0.5987 0.5986 0.5985 0.5984
3146.000000 0.5984 0.5983 0.5982 0.5981 0.5980
3151.000000 0.5979 0.5979 0.5978 0.5977 0.5976
3156.000000 0.5975 0.5974 0.5974 0.5973 0.5972
3161.000000 0.5971 0.5970 0.5969 0.5968 0.5966
3166.000000 0.5965 0.5962 0.5962 0.5960 0.5958
3171.000000 0.5956 0.5955 0.5953 0.5952 0.5950
3176.000000 0.5949 0.5947 0.5946 0.5944 0.5943
3181.000000 0.5941 0.5940 0.5938 0.5937 0.5935
3186.000000 0.5933 0.5931 0.5930 0.5928 0.5927
3191.000000 0.5925 0.5924 0.5922 0.5921 0.5919
3196.000000 0.5918 0.5916 0.5915 0.5914 0.5912
3201.000000 0.5910 0.5910 0.5908 0.5907 0.5905
3206.000000 0.5904 0.5903 0.5902 0.5900 0.5899
3211.000000 0.5897 0.5896 0.5894 0.5893 0.5891
3216.000000 0.5890 0.5889 0.5888 0.5886 0.5885
3221.000000 0.5883 0.5882 0.5880 0.5879 0.5878
3226.000000 0.5877 0.5875 0.5874 0.5872 0.5871
3231.000000 0.5870 0.5869 0.5868 0.5868 0.5867
3236.000000 0.5866 0.5865 0.5865 0.5864 0.5862
3241.000000 0.5862 0.5862 0.5860 0.5860 0.5859
3246.000000 0.5859 0.5858 0.5858 0.5857 0.5856
3251.000000 0.5855 0.5855 0.5854 0.5853 0.5852
3256.000000 0.5852 0.5851 0.5851 0.5850 0.5849
3261.000000 0.5848 0.5848 0.5847 0.5846 0.5845
3266.000000 0.5845 0.5844 0.5843 0.5842 0.5842
3271.000000 0.5841 0.5841 0.5840 0.5839 0.5838
3276.000000 0.5838 0.5837 0.5836 0.5835 0.5835
3281.000000 0.5834 0.5833 0.5832 0.5832 0.5831
3286.000000 0.5831 0.5830 0.5829 0.5828 0.5828
3291.000000 0.5827 0.5826 0.5825 0.5824 0.5823
3296.000000 0.5822 0.5820 0.5819 0.5818 0.5817
3301.000000 0.5816 0.5815 0.5812 0.5812 0.5810
3306.000000 0.5810 0.5809 0.5808 0.5806 0.5805
3311.000000 0.5804 0.5803 0.5802 0.5801 0.5799
3316.000000 0.5798 0.5797 0.5796 0.5795 0.5794
3321.000000 0.5792 0.5791 0.5790 0.5789 0.5788
3326.000000 0.5787 0.5785 0.5784 0.5783 0.5782
3331.000000 0.5781 0.5780 0.5778 0.5777 0.5776
3336.000000 0.5775 0.5774 0.5773 0.5771 0.5770
3341.000000 0.5769 0.5768 0.5767 0.5766 0.5764
3346.000000 0.5762 0.5762 0.5760 0.5760 0.5759
3351.000000 0.5758 0.5757 0.5756 0.5755 0.5754
3356.000000 0.5753 0.5752 0.5751 0.5750 0.5749
3361.000000 0.5748 0.5747 0.5746 0.5745 0.5744
3366.000000 0.5743 0.5742 0.5741 0.5740 0.5739
3371.000000 0.5738 0.5737 0.5736 0.5735 0.5734
3376.000000 0.5733 0.5732 0.5731 0.5730 0.5729
3381.000000 0.5728 0.5727 0.5726 0.5725 0.5724
3386.000000 0.5723 0.5722 0.5721 0.5719 0.5718
3391.000000 0.5717 0.5716 0.5715 0.5714 0.5712
3396.000000 0.5712 0.5710 0.5709 0.5708 0.5707
3401.000000 0.5706 0.5705 0.5703 0.5702 0.5701
3406.000000 0.5700 0.5699 0.5698 0.5696 0.5695
3411.000000 0.5694 0.5693 0.5692 0.5691 0.5689
3416.000000 0.5688 0.5687 0.5686 0.5685 0.5684
3421.000000 0.5683 0.5682 0.5680 0.5679 0.5678
3426.000000 0.5677 0.5676 0.5675 0.5673 0.5671
3431.000000 0.5669 0.5668 0.5666 0.5664 0.5662
3436.000000 0.5660 0.5658 0.5656 0.5654 0.5652
3441.000000 0.5650 0.5649 0.5647 0.5645 0.5643
3446.000000 0.5642 0.5643 0.5643 0.5644 0.5646
3451.000000 0.5647 0.5649 0.5650 0.5652 0.5653
3456.000000 0.5655 0.5656 0.5658 0.5659 0.5660
3461.000000 0.5660 0.5662 0.5662 0.5665 0.5666
3466.000000 0.5667 0.5668 0.5670 0.5671 0.5672
3471.000000 0.5673 0.5675 0.5675 0.5675 0.5674
3476.000000 0.5674 0.5674 0.5674 0.5674 0.5674
3481.000000 0.5674 0.5674 0.5674 0.5674 0.5674
3486.000000 0.5674 0.5674 0.5674 0.5674 0.5675
3491.000000 0.5675 0.5675 0.5675 0.5676 0.5676
3496.000000 0.5676 0.5676 0.5676 0.5676 0.5677
3501.000000 0.5677 0.5677 0.5677 0.5677 0.5677
3506.000000 0.5677 0.5676 0.5675 0.5674 0.5674
3511.000000 0.5673 0.5672 0.5671 0.5670 0.5669
3516.000000 0.5669 0.5668 0.5667 0.5666 0.5665
3521.000000 0.5664 0.5664 0.5662 0.5662 0.5660
3526.000000 0.5660 0.5659 0.5658 0.5657 0.5657
3531.000000 0.5656 0.5655 0.5654 0.5654 0.5653
3536.000000 0.5653 0.5652 0.5652 0.5652 0.5652
3541.000000 0.5651 0.5651 0.5650 0.5650 0.5650
3546.000000 0.5650 0.5649 0.5649 0.5649 0.5649
3551.000000 0.5648 0.5648 0.5647 0.5647 0.5647
3556.000000 0.5647 0.5646 0.5646 0.5645 0.5645
3561.000000 0.5645 0.5645 0.5644 0.5644 0.5643
3566.000000 0.5643 0.5643 0.5643 0.5642 0.5642
3571.000000 0.5641 0.5641 0.5641 0.5641 0.5640
3576.000000 0.5640 0.5640 0.5640 0.5640 0.5640
3581.000000 0.5640 0.5640 0.5639 0.5639 0.5639
3586.000000 0.5639 0.5639 0.5639 0.5639 0.5639
3591.000000 0.5639 0.5639 0.5638 0.5638 0.5638
3596.000000 0.5638 0.5638 0.5638 0.5638 0.5638
3601.000000 0.5637 0.5637 0.5637 0.5637 0.5637
3606.000000 0.5637 0.5637 0.5637 0.5637 0.5637
3611.000000 0.5636 0.5636 0.5636 0.5636 0.5636
3616.000000 0.5636 0.5636 0.5636 0.5636 0.5636
3621.000000 0.5635 0.5635 0.5635 0.5635 0.5635
3626.000000 0.5635 0.5635 0.5635 0.5635 0.5635
3631.000000 0.5634 0.5634 0.5634 0.5634 0.5634
3636.000000 0.5634 0.5633 0.5632 0.5631 0.5630
3641.000000 0.5628 0.5627 0.5626 0.5625 0.5624
3646.000000 0.5623 0.5622 0.5621 0.5619 0.5618
3651.000000 0.5617 0.5616 0.5615 0.5614 0.5612
3656.000000 0.5612 0.5610 0.5609 0.5608 0.5607
3661.000000 0.5606 0.5605 0.5604 0.5603 0.5601
3666.000000 0.5600 0.5599 0.5598 0.5597 0.5596
3671.000000 0.5595 0.5594 0.5592 0.5591 0.5590
3676.000000 0.5589 0.5588 0.5587 0.5586 0.5585
3681.000000 0.5584 0.5583 0.5582 0.5581 0.5580
3686.000000 0.5579 0.5577 0.5576 0.5575 0.5574
3691.000000 0.5573 0.5572 0.5571 0.5570 0.5569
3696.000000 0.5568 0.5567 0.5566 0.5565 0.5564
3701.000000 0.5562 0.5562 0.5560 0.5560 0.5559
3706.000000 0.5558 0.5556 0.5555 0.5554 0.5553
3711.000000 0.5552 0.5551 0.5550 0.5549 0.5548
3716.000000 0.5547 0.5546 0.5545 0.5544 0.5543
3721.000000 0.5542 0.5541 0.5540 0.5539 0.5537
3726.000000 0.5536 0.5534 0.5533 0.5531 0.5529
3731.000000 0.5527 0.5526 0.5524 0.5523 0.5521
3736.000000 0.5519 0.5517 0.5516 0.5514 0.5512
3741.000000 0.5510 0.5509 0.5507 0.5506 0.5504
3746.000000 0.5503 0.5501 0.5499 0.5497 0.5496
3751.000000 0.5494 0.5493 0.5491 0.5489 0.5489
3756.000000 0.5489 0.5489 0.5489 0.5489 0.5489
3761.000000 0.5489 0.5490 0.5490 0.5490 0.5490
3766.000000 0.5491 0.5491 0.5491 0.5491 0.5491
3771.000000 0.5490 0.5490 0.5489 0.5488 0.5487
3776.000000 0.5486 0.5485 0.5484 0.5483 0.5483
3781.000000 0.5482 0.5481 0.5480 0.5479 0.5478
3786.000000 0.5477 0.5476 0.5475 0.5474 0.5473
3791.000000 0.5472 0.5471 0.5470 0.5469 0.5468
3796.000000 0.5468 0.5467 0.5467
##END=
