##TITLE=1-Hexyne
##JCAMP-DX=4.24
##DATA TYPE=INFRARED SPECTRUM
##ORIGIN=NIST Mass Spectrometry Data Center
##OWNER=NIST Standard Reference Data Program
Collection (C) 2018 copyright by the U.S. Secretary of Commerce
on behalf of the United States of America. All rights reserved.
##CAS REGISTRY NO=693-02-7
##MOLFORM=C 6 H 10
##$NIST SOURCE=MSDC-IR
##SPECTROMETER/DATA SYSTEM=HP-GC/MS/IRD
##STATE=gas
##XUNITS=1/CM
##YUNITS=ABSORBANCE
##XFACTOR=1.0
##YFACTOR=0.000005400
##DELTAX=4.0
##FIRSTX=550.0
##LASTX=3846.0
##FIRSTY=0.001669
##MAXX=3846
##MINX=550
##MAXY=0.054
##MINY=0
##NPOINTS=825
##XYDATA=(X++(Y..Y))
550.0 309 252 198 163 150 159 159 166 168 194
590.0 282 372 486 703 1042 1530 2239 3268 4664 6480
630.0 9037 10000 8420 6517 4651 3074 1989 1276 826 549
670.0 362 241 171 128 103 92 77 69 70 72
710.0 75 78 81 97 125 155 162 155 159 160
750.0 159 153 138 122 109 97 84 77 75 65
790.0 69 66 65 69 58 49 30 24 40 35
830.0 16 19 16 10 14 5 0 6 9 18
870.0 26 27 26 31 38 35 34 40 41 44
910.0 48 52 58 60 69 72 66 70 71 61
950.0 51 42 34 29 25 24 23 22 24 27
990.0 24 25 25 24 22 21 16 13 10 3
1030.0 10 20 18 13 9 14 13 12 18 22
1070.0 29 36 41 53 75 95 109 118 124 124
1110.0 114 95 77 67 54 33 30 26 17 23
1150.0 23 20 16 12 17 26 32 40 44 50
1190.0 66 83 93 108 136 169 213 282 394 580
1230.0 887 1306 1722 1974 2013 2029 2042 1866 1482 1001
1270.0 652 475 377 315 279 269 272 278 290 316
1310.0 347 375 398 408 406 410 414 406 379 346
1350.0 323 306 294 284 290 305 330 349 355 353
1390.0 354 352 315 271 247 255 283 332 408 498
1430.0 588 682 781 859 918 964 981 963 935 877
1470.0 799 719 632 543 455 379 310 249 204 171
1510.0 140 117 101 94 90 81 72 66 62 58
1550.0 57 56 54 46 38 40 42 35 30 31
1590.0 34 34 28 29 25 26 26 22 22 22
1630.0 27 29 26 24 19 18 18 15 12 13
1670.0 14 12 16 19 15 12 14 13 10 4
1710.0 6 7 6 6 4 7 10 8 3 3
1750.0 6 12 14 9 6 4 7 10 10 6
1790.0 5 3 5 5 4 5 4 2 2 5
1830.0 3 4 6 9 8 5 4 8 8 5
1870.0 8 10 9 13 13 9 7 5 8 8
1910.0 1 2 1 0 1 4 4 4 4 0
1950.0 3 6 3 1 3 4 3 2 3 3
1990.0 4 5 3 5 7 7 9 14 17 22
2030.0 25 23 24 26 26 25 25 26 27 29
2070.0 38 49 58 70 94 133 178 230 289 353
2110.0 403 437 448 432 390 323 245 165 101 66
2150.0 50 40 33 27 24 23 21 20 19 18
2190.0 17 18 18 14 13 15 13 13 17 16
2230.0 16 15 15 16 16 19 19 16 16 16
2270.0 17 16 14 12 10 10 8 9 11 9
2310.0 12 14 11 9 7 7 12 15 12 11
2350.0 11 10 13 20 23 24 26 26 25 26
2390.0 23 20 22 23 18 11 11 11 14 16
2430.0 14 12 13 14 9 10 11 10 0 1
2470.0 8 3 3 8 12 11 8 7 8 9
2510.0 9 10 10 9 13 15 15 18 15 14
2550.0 18 20 24 28 27 27 24 23 22 23
2590.0 26 25 24 26 26 25 29 33 37 44
2630.0 47 53 59 65 74 78 80 85 91 102
2670.0 103 98 99 104 106 113 122 119 109 95
2710.0 86 85 86 85 93 106 112 121 129 135
2750.0 140 144 145 146 144 135 136 144 157 166
2790.0 175 196 216 236 255 273 305 343 394 455
2830.0 526 618 740 886 1048 1241 1474 1733 2000 2259
2870.0 2540 2831 3010 3037 3006 2965 2920 2861 2850 2961
2910.0 3227 3628 4130 4733 5410 6078 6664 7152 7509 7681
2950.0 7625 7489 7327 7108 6790 6267 5667 5045 4290 3405
2990.0 2585 1958 1495 1157 914 744 624 533 472 430
3030.0 396 371 355 335 318 304 287 265 241 230
3070.0 220 201 195 191 185 179 170 160 154 149
3110.0 141 137 128 122 120 112 101 97 97 91
3150.0 83 79 77 77 76 74 73 69 69 70
3190.0 63 61 63 60 59 59 59 60 62 69
3230.0 70 73 82 87 93 106 122 142 164 194
3270.0 242 321 408 477 568 722 981 1259 1419 1538
3310.0 1840 2475 3110 3201 2946 2761 2893 2798 2015 1235
3350.0 808 602 482 383 297 218 157 111 81 67
3390.0 57 44 40 42 43 39 27 22 24 25
3430.0 21 19 24 26 28 25 17 21 26 17
3470.0 10 19 29 23 15 21 18 8 9 12
3510.0 11 8 6 8 13 13 8 6 6 3
3550.0 0 5 15 16 12 5 4 10 8 7
3590.0 7 1 1 5 12 17 18 19 15 16
3630.0 11 6 11 16 21 18 20 22 22 32
3670.0 30 27 28 26 28 29 24 18 21 17
3710.0 14 17 16 12 11 16 24 25 26 27
3750.0 20 13 10 20 28 24 18 20 20 10
3790.0 11 15 16 18 21 30 22 7 12 23
3830.0 23 16 15 17 21
##END=
