##TITLE=3-Methyl-1-pentene
##JCAMP-DX=4.24
##DATA TYPE=INFRARED SPECTRUM
##ORIGIN=NIST Mass Spectrometry Data Center
##OWNER=NIST Standard Reference Data Program
Collection (C) 2018 copyright by the U.S. Secretary of Commerce
on behalf of the United States of America. All rights reserved.
##CAS REGISTRY NO=760-20-3
##MOLFORM=C 6 H 12
##$NIST SOURCE=MSDC-IR
##SPECTROMETER/DATA SYSTEM=HP-GC/MS/IRD
##STATE=gas
##XUNITS=1/CM
##YUNITS=ABSORBANCE
##XFACTOR=1.0
##YFACTOR=0.000004700
##DELTAX=4.0
##FIRSTX=550.0
##LASTX=3846.0
##FIRSTY=0.000306
##MAXX=3846
##MINX=550
##MAXY=0.047
##MINY=0
##NPOINTS=825
##XYDATA=(X++(Y..Y))
550.0 65 16 1 31 27 13 10 1 0 13
590.0 18 44 63 49 45 57 62 50 69 95
630.0 116 127 144 195 233 281 346 411 465 489
670.0 492 484 471 440 362 273 205 151 127 108
710.0 89 72 61 69 79 88 92 100 118 143
750.0 164 178 188 196 206 201 190 185 174 151
790.0 135 127 137 153 151 146 138 152 138 137
830.0 159 163 176 184 180 180 186 193 220 252
870.0 276 333 426 537 694 920 1242 1655 2057 2313
910.0 2508 2625 2567 2420 2116 1696 1289 986 786 674
950.0 624 594 599 626 664 718 803 925 1082 1262
990.0 1410 1515 1586 1557 1412 1224 1037 854 699 575
1030.0 475 410 349 297 269 245 223 205 199 197
1070.0 206 223 240 252 248 245 236 225 212 197
1110.0 183 175 173 167 173 176 166 151 144 142
1150.0 136 133 119 105 103 101 83 76 71 64
1190.0 63 60 52 49 56 55 49 52 63 67
1230.0 68 76 91 108 124 140 153 160 173 186
1270.0 199 211 214 216 229 245 247 244 249 252
1310.0 253 258 260 254 258 268 268 269 280 290
1350.0 315 360 419 499 598 695 765 814 881 911
1390.0 853 784 721 662 641 644 646 653 667 679
1430.0 691 727 785 863 955 1055 1166 1281 1304 1232
1470.0 1140 1006 874 739 593 463 352 265 203 156
1510.0 127 115 99 91 90 91 90 81 81 94
1550.0 99 100 102 128 149 156 159 166 170 168
1590.0 171 171 178 195 223 271 339 432 549 665
1630.0 762 816 856 864 824 740 605 478 368 275
1670.0 208 163 131 102 83 77 64 50 43 46
1710.0 44 28 23 31 28 18 9 13 22 21
1750.0 19 23 22 22 27 26 25 30 34 37
1790.0 35 44 57 69 95 131 175 215 243 258
1830.0 262 251 240 211 164 121 86 62 46 38
1870.0 34 31 30 27 21 18 17 17 14 13
1910.0 14 14 13 12 11 9 11 11 9 10
1950.0 17 20 22 23 22 28 32 31 31 28
1990.0 25 23 19 18 22 18 8 7 10 9
2030.0 9 8 6 8 10 10 10 12 12 14
2070.0 13 10 9 11 13 12 11 13 14 13
2110.0 15 13 6 0 3 6 3 8 15 13
2150.0 5 2 6 9 9 8 4 2 4 7
2190.0 10 11 10 7 0 4 9 7 11 10
2230.0 8 11 14 11 6 9 15 18 17 16
2270.0 17 19 22 27 28 24 26 27 25 23
2310.0 24 22 18 21 19 24 23 14 19 24
2350.0 25 25 22 22 26 24 26 32 39 41
2390.0 39 33 33 38 36 32 29 33 35 31
2430.0 28 32 38 39 34 35 39 39 37 30
2470.0 25 29 33 33 31 27 30 33 27 26
2510.0 32 32 32 34 36 41 41 45 49 51
2550.0 60 65 63 66 66 63 67 74 68 68
2590.0 75 74 75 79 79 77 75 74 80 81
2630.0 73 71 74 79 74 71 75 77 83 91
2670.0 95 93 90 87 91 96 102 103 105 112
2710.0 121 128 136 154 166 172 179 187 195 199
2750.0 199 198 205 206 204 201 203 216 229 240
2790.0 249 261 274 293 321 342 372 404 433 474
2830.0 538 622 741 908 1127 1400 1729 2121 2568 3038
2870.0 3490 3874 4125 4246 4286 4242 4163 4108 4094 4175
2910.0 4386 4714 5135 5581 5930 6136 6255 6336 6427 6567
2950.0 6837 7389 8287 9324 10000 9950 9495 8924 8165 7041
2990.0 5583 4236 3247 2574 2103 1762 1498 1289 1123 991
3030.0 884 807 765 759 776 818 889 986 1120 1276
3070.0 1452 1614 1735 1865 1822 1597 1449 1300 1075 831
3110.0 623 481 392 336 302 283 265 257 252 235
3150.0 219 218 220 216 211 207 205 200 194 183
3190.0 170 163 161 157 145 128 119 114 100 84
3230.0 80 78 70 66 66 65 68 65 61 65
3270.0 69 64 58 52 56 63 59 55 58 60
3310.0 61 52 40 46 55 49 39 30 33 36
3350.0 33 39 42 30 22 35 39 35 36 41
3390.0 43 32 40 42 35 43 37 27 21 16
3430.0 21 32 34 28 26 23 22 18 26 33
3470.0 26 26 29 16 7 8 11 15 13 16
3510.0 21 19 22 19 12 20 14 4 12 14
3550.0 13 18 12 7 6 12 16 17 18 11
3590.0 15 18 9 12 8 0 8 11 13 17
3630.0 17 26 20 15 15 10 14 20 23 12
3670.0 4 9 20 23 12 16 27 24 14 11
3710.0 10 18 24 15 9 7 6 10 4 9
3750.0 20 28 38 32 15 14 22 26 27 17
3790.0 11 12 16 23 15 7 16 21 25 29
3830.0 23 18 18 22 31
##END=
