##TITLE=2-Butyn-1-ol
##JCAMP-DX=4.24
##DATA TYPE=INFRARED SPECTRUM
##ORIGIN=NIST Mass Spectrometry Data Center
##OWNER=NIST Standard Reference Data Program
Collection (C) 2018 copyright by the U.S. Secretary of Commerce
on behalf of the United States of America. All rights reserved.
##CAS REGISTRY NO=764-01-2
##MOLFORM=C 4 H 6 O
##$NIST SOURCE=MSDC-IR
##SPECTROMETER/DATA SYSTEM=HP-GC/MS/IRD
##STATE=gas
##XUNITS=1/CM
##YUNITS=ABSORBANCE
##XFACTOR=1.0
##YFACTOR=0.000002800
##DELTAX=4.0
##FIRSTX=550.0
##LASTX=3846.0
##FIRSTY=0.000672
##MAXX=3846
##MINX=550
##MAXY=0.028
##MINY=0
##NPOINTS=825
##XYDATA=(X++(Y..Y))
550.0 240 289 163 171 141 120 92 76 64 36
590.0 32 17 7 47 66 50 33 45 77 111
630.0 166 210 222 211 195 192 197 170 120 80
670.0 43 19 37 68 76 91 129 146 169 201
710.0 194 202 233 242 254 255 254 268 307 344
750.0 368 395 420 432 451 464 436 388 354 320
790.0 296 249 212 189 147 113 119 119 103 99
830.0 100 106 111 118 114 121 133 139 160 185
870.0 213 236 253 274 291 301 320 342 354 364
910.0 401 436 458 509 582 660 752 866 1011 1195
950.0 1408 1674 2014 2398 2825 3320 3890 4574 5354 6260
990.0 7288 8330 9220 9800 10000 9879 9557 9031 8185 7011
1030.0 5730 4598 3710 3083 2623 2243 1892 1568 1288 1071
1070.0 915 798 715 658 622 607 607 632 681 752
1110.0 880 1085 1374 1745 2185 2586 2820 2867 2818 2785
1150.0 2668 2231 1633 1173 905 768 684 630 611 609
1190.0 610 621 641 675 708 740 786 830 865 896
1230.0 919 944 964 986 1017 1037 1073 1109 1147 1182
1270.0 1198 1209 1213 1196 1185 1169 1127 1083 1064 1055
1310.0 1053 1080 1150 1236 1323 1448 1574 1661 1813 2074
1350.0 2347 2643 3046 3514 3953 4393 4830 5113 5313 5443
1390.0 5336 5021 4650 4353 3965 3360 2811 2464 2074 1656
1430.0 1419 1257 1039 910 901 845 785 858 869 726
1470.0 657 665 617 560 560 564 543 542 567 559
1510.0 498 460 442 415 397 389 370 356 342 319
1550.0 290 271 261 244 228 220 217 209 180 155
1590.0 144 132 119 113 104 99 108 105 83 70
1630.0 66 61 52 52 57 62 58 41 39 38
1670.0 43 43 45 58 64 61 59 52 45 48
1710.0 44 28 19 15 14 17 18 14 6 4
1750.0 5 1 0 4 4 6 9 7 8 10
1790.0 8 8 6 0 3 9 7 8 11 11
1830.0 9 3 3 7 8 6 7 12 14 11
1870.0 10 17 14 8 9 9 9 14 20 21
1910.0 17 21 26 29 32 35 42 49 48 51
1950.0 54 58 65 69 80 89 96 105 115 127
1990.0 140 147 153 157 157 159 157 148 135 126
2030.0 116 110 107 106 102 100 97 88 82 72
2070.0 58 47 36 30 23 19 18 11 11 15
2110.0 17 22 25 22 24 26 22 23 22 24
2150.0 28 32 39 48 60 78 97 120 155 197
2190.0 238 295 366 444 530 618 701 767 810 812
2230.0 778 712 630 529 410 303 234 217 234 261
2270.0 292 332 383 440 487 526 556 557 540 503
2310.0 442 363 275 185 119 84 72 62 55 54
2350.0 61 64 63 68 70 68 68 69 69 72
2390.0 74 71 66 65 62 54 57 54 49 49
2430.0 54 56 47 45 52 49 43 42 48 49
2470.0 51 54 55 54 51 42 39 49 52 46
2510.0 54 57 51 49 46 47 51 49 40 33
2550.0 28 22 20 22 18 17 13 7 12 18
2590.0 21 26 29 30 31 30 30 34 35 30
2630.0 28 32 30 33 38 34 33 38 45 43
2670.0 47 50 51 63 66 66 72 78 84 94
2710.0 104 115 126 144 159 172 200 231 253 271
2750.0 278 282 294 281 262 250 234 236 245 243
2790.0 241 261 285 299 321 353 396 442 501 573
2830.0 654 757 870 1000 1151 1329 1553 1800 2061 2359
2870.0 2650 2859 2985 3062 3082 3067 3054 3048 3018 3013
2910.0 3083 3255 3563 4061 4597 4843 4711 4504 4499 4416
2950.0 3977 3276 2625 2249 1939 1767 1590 1465 1422 1187
2990.0 1064 945 838 802 738 810 703 602 575 510
3030.0 499 465 515 470 399 365 326 310 298 320
3070.0 277 248 224 192 170 151 162 137 130 129
3110.0 111 93 104 109 87 68 54 58 60 56
3150.0 60 51 32 31 23 15 20 25 28 20
3190.0 28 31 20 21 22 17 18 15 11 11
3230.0 11 7 15 27 30 34 35 30 37 40
3270.0 29 28 35 36 32 42 58 65 49 45
3310.0 42 50 71 64 60 69 78 71 63 61
3350.0 53 46 55 68 59 46 65 74 64 72
3390.0 72 56 62 77 89 100 98 88 83 92
3430.0 104 92 86 94 92 97 104 109 113 103
3470.0 99 92 104 113 110 119 126 121 111 111
3510.0 122 133 139 151 171 171 155 154 169 172
3550.0 153 137 130 122 123 129 131 129 145 158
3590.0 174 218 261 298 338 396 452 517 607 684
3630.0 786 910 1023 1158 1308 1438 1434 1335 1322 1412
3670.0 1498 1452 1286 1099 954 832 721 637 544 450
3710.0 378 305 246 221 201 176 155 127 120 132
3750.0 131 130 127 131 143 147 163 174 162 156
3790.0 147 150 164 165 154 139 139 136 120 117
3830.0 119 120 115 100 91
##END=
