##TITLE=N-Methylacetamide
##JCAMP-DX=4.24
##DATA TYPE=INFRARED SPECTRUM
##ORIGIN=NIST Mass Spectrometry Data Center
##OWNER=NIST Standard Reference Data Program
Collection (C) 2018 copyright by the U.S. Secretary of Commerce
on behalf of the United States of America. All rights reserved.
##CAS REGISTRY NO=79-16-3
##MOLFORM=C 3 H 7 N O
##$NIST SOURCE=MSDC-IR
##SPECTROMETER/DATA SYSTEM=HP-GC/MS/IRD
##STATE=gas
##XUNITS=1/CM
##YUNITS=ABSORBANCE
##XFACTOR=1.0
##YFACTOR=0.000001200
##DELTAX=4.0
##FIRSTX=550.0
##LASTX=3846.0
##FIRSTY=0.000170
##MAXX=3846
##MINX=550
##MAXY=0.012
##MINY=0
##NPOINTS=825
##XYDATA=(X++(Y..Y))
550.0 142 194 88 92 107 117 103 82 67 92
590.0 149 125 103 131 192 292 342 339 379 369
630.0 313 324 301 271 250 190 168 176 139 89
670.0 90 122 80 25 37 26 19 28 12 6
710.0 27 54 26 26 34 28 74 104 93 99
750.0 127 150 176 211 248 294 349 401 462 515
790.0 548 573 600 630 652 679 708 713 672 647
830.0 634 568 496 451 412 337 281 239 210 198
870.0 179 150 138 130 142 165 161 137 145 174
910.0 179 178 194 194 177 183 229 277 268 272
950.0 321 344 385 394 390 407 387 374 372 341
990.0 299 252 217 192 171 187 212 228 259 280
1030.0 267 283 293 301 331 321 287 272 264 280
1070.0 325 361 341 306 308 300 308 346 354 332
1110.0 299 278 256 216 234 236 171 153 154 184
1150.0 220 219 213 242 272 268 271 269 287 320
1190.0 353 372 415 524 665 822 1034 1304 1635 2020
1230.0 2478 2945 3339 3607 3694 3678 3641 3495 3235 2887
1270.0 2434 1873 1314 893 657 533 481 481 490 501
1310.0 500 502 516 528 527 529 553 579 629 751
1350.0 937 1129 1312 1460 1606 1696 1747 1798 1779 1641
1390.0 1461 1348 1302 1290 1304 1332 1354 1372 1422 1504
1430.0 1611 1729 1813 1873 2008 2217 2482 2848 3252 3729
1470.0 4215 4653 4974 5200 5354 5434 5416 5313 5096 4749
1510.0 4322 3940 3628 3364 3141 2945 2753 2573 2367 2142
1550.0 1915 1698 1475 1240 1042 901 789 705 632 580
1590.0 523 489 459 415 381 372 369 349 331 313
1630.0 317 355 381 411 456 521 600 683 802 954
1670.0 1139 1366 1678 2123 2771 3559 4630 5997 7497 8888
1710.0 9696 9590 8901 8513 9071 10000 9879 8363 6355 4605
1750.0 3299 2348 1647 1113 743 491 319 222 167 123
1790.0 98 97 93 93 75 63 69 58 39 40
1830.0 33 23 28 39 45 38 29 24 29 29
1870.0 24 24 22 19 7 9 16 28 30 17
1910.0 19 16 22 22 21 21 12 21 25 24
1950.0 20 15 21 16 22 35 38 44 43 48
1990.0 48 34 34 39 39 29 19 20 19 19
2030.0 24 23 17 19 28 35 38 32 24 27
2070.0 29 30 24 19 26 26 24 26 18 15
2110.0 7 4 18 29 26 18 17 25 27 28
2150.0 17 9 22 24 22 26 16 16 18 13
2190.0 8 9 12 0 3 9 2 11 17 9
2230.0 21 21 17 24 31 31 19 13 20 23
2270.0 21 27 31 26 24 41 32 7 9 26
2310.0 38 27 17 31 38 34 31 40 48 45
2350.0 54 61 56 52 40 28 21 37 34 5
2390.0 9 19 11 11 21 25 24 26 25 28
2430.0 27 22 20 12 12 16 9 17 23 18
2470.0 12 18 31 33 27 25 31 25 11 10
2510.0 22 30 11 13 16 18 34 27 20 19
2550.0 26 25 31 40 41 39 41 54 51 48
2590.0 44 45 51 49 49 50 49 43 41 42
2630.0 35 40 54 48 34 41 44 39 28 27
2670.0 32 35 44 39 44 65 80 65 71 93
2710.0 83 66 68 73 81 79 70 66 66 91
2750.0 80 66 86 77 68 86 83 93 125 133
2790.0 140 159 185 207 234 261 289 297 296 323
2830.0 349 341 331 342 352 351 354 369 402 457
2870.0 485 532 625 691 763 839 893 1003 1110 1184
2910.0 1267 1364 1461 1588 1714 1768 1788 1825 1863 1875
2950.0 1883 1836 1710 1614 1509 1387 1275 1143 1045 950
2990.0 847 789 762 708 642 630 612 601 611 613
3030.0 610 606 597 578 557 539 532 516 485 426
3070.0 365 328 301 293 277 266 241 212 217 222
3110.0 195 185 190 167 127 103 116 126 102 76
3150.0 89 89 85 87 73 75 67 59 84 91
3190.0 79 56 44 50 55 46 37 40 61 70
3230.0 53 43 18 11 35 21 12 45 52 50
3270.0 62 66 57 53 69 67 69 82 69 63
3310.0 55 43 28 27 56 71 63 58 71 58
3350.0 64 82 61 60 86 82 66 74 102 120
3390.0 115 124 132 135 173 200 222 244 246 264
3430.0 293 328 348 355 369 373 386 430 489 523
3470.0 545 619 703 725 715 705 674 630 589 564
3510.0 517 417 343 267 192 166 160 105 68 51
3550.0 46 86 60 44 60 61 71 77 67 76
3590.0 70 22 29 78 76 54 64 89 70 53
3630.0 63 17 35 71 58 69 75 70 53 68
3670.0 118 131 108 91 92 73 47 64 85 78
3710.0 64 63 55 44 60 74 81 86 116 131
3750.0 112 79 54 77 65 61 71 65 62 52
3790.0 72 70 81 99 88 65 37 37 46 45
3830.0 38 62 100 75 59
##END=
