##TITLE=Thiolactic acid
##JCAMP-DX=4.24
##DATA TYPE=INFRARED SPECTRUM
##ORIGIN=EPA-IR VAPOR PHASE LIBRARY
##OWNER=SRD/NIST
Collection (C) 2018 copyright by the U.S. Secretary of Commerce
on behalf of the United States of America. All rights reserved.
##CAS REGISTRY NO=79-42-5
##MOLFORM=C 3 H 6 O 2 S
##$NIST SOURCE=MSDC-IR
##STATE=gas
##XUNITS=1/CM
##YUNITS=ABSORBANCE
##XFACTOR=1.
##YFACTOR=0.001
##DELTAX=1.92898
##FIRSTX=549.8
##LASTX=4000.7
##FIRSTY=15.417
##MAXX=4000.7
##MINX=549.759
##MAXY=0.097727
##MINY=0
##NPOINTS=1790
##XYDATA=(X++(Y..Y))
549.759 15.417 15.667 16.007 16.227 16.457 17.057 17.897 18.177 18.277 18.657
569.049 18.727 18.577 18.637 18.917 18.957 19.077 19.297 19.277 18.787 18.237
588.339 17.947 17.707 17.457 17.047 16.577 16.107 15.597 14.997 14.457 14.067
607.628 13.547 12.957 12.417 11.797 11.277 10.807 10.197 9.827 9.577 9.327
626.918 9.267 9.217 9.047 8.917 8.917 8.947 9.117 9.357 9.497 9.617
646.208 9.717 9.897 10.097 10.167 10.287 10.357 10.367 10.557 10.657 10.487
665.498 10.337 10.237 9.997 9.597 9.257 8.997 8.647 8.257 7.787 7.227
684.787 6.877 6.427 5.857 5.317 4.887 4.517 4.007 3.637 3.427 3.127
704.077 2.807 2.557 2.407 2.247 2.097 2.057 1.977 1.917 1.927 1.897
723.367 1.907 1.967 1.987 1.947 1.927 1.997 2.017 1.997 2.027 2.097
742.657 2.177 2.197 2.367 2.577 2.727 2.887 3.017 3.147 3.327 3.467
761.947 3.577 3.827 3.917 3.907 3.897 3.877 3.947 3.957 3.847 3.797
781.236 3.707 3.427 3.307 3.197 3.067 2.947 2.807 2.687 2.627 2.597
800.526 2.487 2.407 2.357 2.367 2.457 2.387 2.257 2.267 2.257 2.227
819.816 2.257 2.297 2.267 2.247 2.167 2.067 2.057 2.037 1.937 1.757
839.106 1.707 1.657 1.527 1.347 1.1495 1.0733 1.0382 1.0354 1.0051 0.9004
858.395 0.8177 0.8234 0.9396 0.9455 0.9362 1.0065 0.9943 0.8968 0.983 1.087
877.685 1.0788 1.1439 1.1106 1.0549 1.077 1.1598 1.237 1.177 1.187 1.217
896.975 1.1626 1.0781 1.0192 1.0047 0.9081 0.8682 0.942 0.8904 0.8063 0.8216
916.265 0.7469 0.7087 0.7306 0.7276 0.7471 0.7812 0.783 0.7895 0.7768 0.8182
935.555 0.8794 0.8466 0.9228 1.046 1.0559 1.0719 1.0833 1.1241 1.307 1.347
954.844 1.407 1.557 1.567 1.667 1.847 1.977 2.187 2.477 2.767 2.917
974.134 3.017 3.157 3.297 3.527 3.747 3.857 3.967 4.097 4.167 4.327
993.424 4.397 4.397 4.307 4.227 4.417 4.537 4.427 4.427 4.527 4.517
1012.714 4.617 4.767 4.867 4.987 5.257 5.477 5.747 6.277 7.007 7.727
1032.003 8.437 9.157 9.977 10.867 11.807 12.767 13.677 14.797 15.897 16.667
1051.293 17.337 18.207 19.067 19.767 20.477 21.417 22.467 23.307 24.037 24.937
1070.583 25.897 26.577 27.317 27.997 28.537 29.107 29.717 30.167 30.447 30.607
1089.873 30.337 30.257 30.077 29.817 30.037 30.117 30.017 30.247 30.647 31.237
1109.163 32.207 33.257 34.507 35.957 37.567 39.187 40.727 42.337 43.817 45.087
1128.452 46.257 47.267 47.787 47.857 47.637 47.137 46.477 45.517 44.257 42.797
1147.742 41.027 39.147 37.297 35.327 33.217 31.247 29.527 28.067 26.837 25.777
1167.032 24.657 23.537 22.377 21.007 19.737 18.597 17.567 16.507 15.337 14.357
1186.322 13.397 12.427 11.657 10.927 10.227 9.617 9.117 8.727 8.447 8.077
1205.611 7.517 7.257 7.287 7.197 7.017 6.937 6.967 6.877 6.727 6.567
1224.901 6.427 6.357 6.327 6.237 6.037 5.937 5.827 5.797 5.797 5.657
1244.191 5.557 5.527 5.457 5.347 5.297 5.247 5.237 5.157 5.107 5.117
1263.481 5.067 5.007 5.087 5.137 5.077 5.147 5.367 5.487 5.547 5.597
1282.771 5.737 6.007 6.237 6.497 6.747 6.957 7.257 7.487 7.707 8.037
1302.060 8.367 8.677 8.917 9.167 9.437 9.707 9.967 10.167 10.327 10.507
1321.350 10.617 10.687 10.707 10.737 10.737 10.687 10.687 10.677 10.627 10.587
1340.640 10.547 10.487 10.517 10.517 10.507 10.607 10.737 10.867 10.967 11.077
1359.930 11.217 11.347 11.497 11.657 11.807 11.907 11.957 11.947 11.877 11.707
1379.219 11.537 11.397 11.217 10.827 10.187 9.577 9.057 8.507 7.957 7.367
1398.509 6.717 6.007 5.327 4.707 4.167 3.737 3.387 3.157 2.987 2.847
1417.799 2.807 2.797 2.777 2.827 2.897 2.997 3.177 3.417 3.717 3.997
1437.089 4.277 4.647 5.007 5.337 5.667 5.957 6.267 6.597 6.897 7.057
1456.378 7.087 7.077 6.827 6.227 5.637 5.267 5.087 4.917 4.607 4.167
1475.668 3.667 3.197 2.797 2.417 2.087 1.827 1.607 1.427 1.287 1.177
1494.958 1.1286 1.1002 1.0253 0.964 0.9153 0.9442 1.0209 0.9429 0.8382 0.8391
1514.248 0.8533 0.8349 0.8081 0.8252 0.8609 0.8551 0.833 0.8588 0.8617 0.8463
1533.538 0.8647 0.8057 0.8167 0.8577 0.8184 0.7981 0.7689 0.7448 0.7541 0.7357
1552.827 0.7188 0.6914 0.6675 0.6712 0.6653 0.6487 0.6428 0.6444 0.6398 0.5871
1572.117 0.5666 0.6203 0.6221 0.5718 0.5756 0.5874 0.5515 0.5417 0.527 0.5532
1591.407 0.5702 0.5203 0.519 0.5441 0.5501 0.6026 0.6364 0.6195 0.6264 0.6729
1610.697 0.6553 0.6117 0.632 0.6709 0.6858 0.674 0.6768 0.6899 0.6631 0.7106
1629.986 0.778 0.7543 0.7803 0.8056 0.8217 0.8325 0.8571 0.8789 0.8986 0.9285
1649.276 0.9333 0.9217 0.9117 0.9665 0.9778 0.9904 1.0346 1.0463 1.0321 1.0164
1668.566 1.0561 1.0774 1.0756 1.0811 1.1162 1.1133 1.0863 1.1487 1.217 1.227
1687.856 1.257 1.267 1.307 1.387 1.487 1.607 1.707 1.837 2.007 2.207
1707.146 2.447 2.727 3.087 3.477 3.867 4.357 4.927 5.467 6.117 6.837
1726.435 7.587 8.457 9.477 10.557 11.797 13.157 14.597 16.377 18.457 20.877
1745.725 23.697 27.057 30.917 35.317 40.217 45.547 51.267 56.947 62.467 67.617
1765.015 72.307 76.637 80.817 84.977 89.437 93.827 97.167 97.727 94.507 89.417
1784.305 84.457 79.947 75.427 70.207 64.197 57.607 50.777 44.007 37.837 32.397
1803.594 27.737 23.827 20.527 17.697 15.347 13.457 11.877 10.457 9.217 8.177
1822.884 7.357 6.597 5.907 5.307 4.747 4.267 3.847 3.477 3.167 2.857
1842.174 2.607 2.417 2.207 1.997 1.867 1.767 1.597 1.457 1.387 1.347
1861.464 1.277 1.177 1.1238 1.092 1.054 1.0511 1.0237 0.9752 0.9179 0.8576
1880.754 0.8094 0.8068 0.8524 0.8713 0.832 0.7847 0.806 0.8033 0.7676 0.7945
1900.043 0.8149 0.7644 0.7342 0.7517 0.7589 0.731 0.7047 0.6843 0.6761 0.6633
1919.333 0.6489 0.6678 0.6438 0.6137 0.621 0.6267 0.5946 0.5862 0.6644 0.6872
1938.623 0.6356 0.6057 0.5902 0.5737 0.5875 0.6175 0.6204 0.621 0.6305 0.6077
1957.913 0.5854 0.6067 0.6282 0.6486 0.6558 0.6288 0.6205 0.6283 0.6494 0.6282
1977.202 0.5692 0.5324 0.5619 0.566 0.5382 0.5167 0.4715 0.4307 0.4114 0.4227
1996.492 0.4166 0.4416 0.4474 0.4373 0.4322 0.4343 0.4238 0.3553 0.3567 0.4033
2015.782 0.4015 0.3721 0.3788 0.3906 0.3649 0.3447 0.3363 0.3681 0.4167 0.4301
2035.072 0.4241 0.402 0.3886 0.4012 0.374 0.3222 0.3262 0.3216 0.3065 0.3201
2054.362 0.3364 0.3303 0.2815 0.294 0.31 0.2958 0.299 0.297 0.3063 0.2782
2073.651 0.22801 0.20323 0.21421 0.23111 0.26566 0.2785 0.25009 0.21617 0.21075 0.25793
2092.941 0.2888 0.2813 0.26054 0.2739 0.2866 0.26164 0.26109 0.26312 0.24737 0.24324
2112.231 0.25755 0.27166 0.2879 0.2941 0.27092 0.2927 0.317 0.32 0.3352 0.3448
2131.521 0.3377 0.3017 0.3086 0.3749 0.3703 0.3265 0.3307 0.3457 0.3439 0.3617
2150.810 0.3656 0.3452 0.3361 0.3554 0.3818 0.3637 0.3633 0.3958 0.424 0.3757
2170.100 0.3339 0.3476 0.342 0.3691 0.3975 0.3899 0.4285 0.4784 0.4734 0.5033
2189.390 0.5617 0.548 0.509 0.4969 0.5025 0.5005 0.4926 0.5274 0.521 0.478
2208.680 0.4617 0.4965 0.481 0.4604 0.4856 0.4598 0.4335 0.4817 0.4925 0.4365
2227.970 0.4632 0.4627 0.4417 0.4404 0.3943 0.4176 0.4588 0.3918 0.3588 0.3428
2247.259 0.3137 0.3312 0.3659 0.3757 0.3421 0.3305 0.3392 0.3432 0.3439 0.361
2266.549 0.3868 0.3625 0.3255 0.3184 0.3256 0.3466 0.3703 0.3301 0.2839 0.2998
2285.839 0.3289 0.3513 0.3723 0.3691 0.3742 0.3829 0.3317 0.3096 0.2979 0.3134
2305.129 0.4021 0.4258 0.3996 0.3946 0.3836 0.3877 0.4267 0.4162 0.3724 0.3813
2324.418 0.3803 0.3833 0.4281 0.4247 0.4205 0.4675 0.4883 0.4545 0.4044 0.3966
2343.708 0.4065 0.4244 0.4439 0.4121 0.4363 0.4502 0.4428 0.4919 0.5204 0.5404
2362.998 0.5516 0.5107 0.4859 0.4893 0.4214 0.3993 0.4123 0.3823 0.3907 0.3807
2382.288 0.3917 0.446 0.4495 0.439 0.4263 0.3839 0.3962 0.4253 0.4119 0.3739
2401.578 0.3554 0.373 0.3693 0.371 0.3817 0.4193 0.4508 0.4176 0.4236 0.4018
2420.867 0.3938 0.3998 0.3752 0.3776 0.3567 0.3509 0.3711 0.3897 0.3493 0.3576
2440.157 0.4328 0.4091 0.3547 0.3549 0.3633 0.4083 0.4126 0.4019 0.4399 0.4483
2459.447 0.4458 0.3757 0.3114 0.3151 0.3663 0.3681 0.309 0.26941 0.3316 0.3958
2478.737 0.355 0.365 0.3436 0.25772 0.25842 0.327 0.2921 0.2762 0.3313 0.3669
2498.026 0.3563 0.3258 0.3624 0.3892 0.3655 0.331 0.3338 0.3248 0.312 0.3259
2517.316 0.341 0.329 0.3013 0.2986 0.2954 0.2972 0.3078 0.257 0.2271 0.27339
2536.606 0.25518 0.2233 0.25427 0.2903 0.2991 0.26087 0.24523 0.2912 0.3183 0.3195
2555.896 0.2821 0.26533 0.24654 0.22657 0.22823 0.20843 0.24575 0.3066 0.3643 0.4068
2575.186 0.4081 0.4588 0.5283 0.5662 0.6061 0.6223 0.6043 0.6274 0.6418 0.6645
2594.475 0.7007 0.6327 0.5985 0.6047 0.5406 0.5098 0.4975 0.4814 0.465 0.4404
2613.765 0.3957 0.3945 0.3815 0.3502 0.3795 0.3539 0.2851 0.23096 0.22755 0.26689
2633.055 0.2846 0.22718 0.20314 0.21531 0.17815 0.1592 0.1651 0.17348 0.1706 0.1264
2652.345 0.1272 0.1596 0.21509 0.21666 0.1606 0.163 0.1534 0.1026 0.1347 0.1925
2671.634 0.2838 0.2986 0.2057 0.1587 0.1605 0.1526 0.119 0.17224 0.178381 0.1252
2690.924 0.1494 0.21056 0.20502 0.1666 0.151 0.1179 0.0947 0.1446 0.1097 0.087
2710.214 0.1564 0.17554 0.17481 0.16802 0.1218 0.1031 0.1648 0.1663 0.1577 0.1498
2729.504 0.17009 0.20559 0.21813 0.18972 0.1528 0.2031 0.24377 0.2208 0.1573 0.23476
2748.794 0.3172 0.2268 0.19123 0.19543 0.21112 0.2968 0.27203 0.20445 0.22415 0.19927
2768.083 0.181052 0.21515 0.20506 0.19505 0.19647 0.20353 0.22058 0.23436 0.20599 0.1581
2787.373 0.23021 0.2828 0.22559 0.1977 0.21107 0.27648 0.289 0.2956 0.2847 0.2721
2806.663 0.2954 0.2817 0.2898 0.3154 0.3552 0.3785 0.3753 0.3289 0.3723 0.443
2825.953 0.4454 0.4164 0.3942 0.497 0.5398 0.4388 0.4116 0.449 0.4517 0.4606
2845.242 0.4582 0.4615 0.5211 0.5351 0.5823 0.6769 0.6609 0.7018 0.8477 0.9184
2864.532 1.0099 1.197 1.397 1.547 1.667 1.737 1.887 2.067 2.187 2.357
2883.822 2.427 2.397 2.377 2.507 2.547 2.427 2.407 2.427 2.377 2.317
2903.112 2.267 2.257 2.207 2.147 2.147 2.167 2.207 2.287 2.457 2.667
2922.401 2.807 3.037 3.367 3.637 3.987 4.407 4.707 4.857 4.977 5.127
2941.691 5.227 5.287 5.377 5.407 5.327 5.247 5.167 4.987 4.727 4.507
2960.981 4.367 4.347 4.357 4.467 4.757 5.007 5.387 5.957 6.397 6.887
2980.271 7.457 8.067 8.607 8.757 8.787 8.847 8.917 8.947 8.927 8.817
2999.561 8.547 7.797 6.757 5.977 5.217 4.517 3.887 3.347 2.917 2.467
3018.850 2.117 1.807 1.577 1.377 1.1415 0.9455 0.7968 0.726 0.7084 0.694
3038.140 0.6623 0.6091 0.5768 0.5019 0.4408 0.4263 0.3824 0.3536 0.3027 0.3363
3057.430 0.4074 0.4064 0.3663 0.2873 0.26044 0.3466 0.4429 0.3845 0.27162 0.3163
3076.720 0.4081 0.3861 0.2773 0.19403 0.22935 0.3077 0.3513 0.3401 0.3101 0.3196
3096.009 0.3109 0.2676 0.23384 0.22707 0.2803 0.3017 0.3463 0.3537 0.3067 0.26514
3115.299 0.24717 0.3211 0.2953 0.20639 0.19008 0.20029 0.23446 0.2996 0.3412 0.3518
3134.589 0.3194 0.27514 0.2793 0.3313 0.26053 0.18799 0.25373 0.2792 0.27051 0.2813
3153.879 0.2996 0.3024 0.3002 0.2813 0.2784 0.3224 0.2926 0.2851 0.3841 0.4204
3173.169 0.324 0.23972 0.3226 0.4232 0.3967 0.2785 0.2934 0.3017 0.21921 0.21255
3192.458 0.23167 0.3314 0.4007 0.3307 0.22219 0.185633 0.22034 0.20822 0.20054 0.25049
3211.748 0.22555 0.22426 0.22518 0.26545 0.26605 0.27353 0.322 0.24944 0.22736 0.343
3231.038 0.3844 0.3368 0.3249 0.3118 0.2992 0.23644 0.23112 0.22698 0.1451 0.20356
3250.328 0.3245 0.3289 0.358 0.2852 0.19414 0.20469 0.1644 0.20484 0.22183 0.1261
3269.617 0.20289 0.301 0.2734 0.19014 0.25762 0.3328 0.22853 0.1661 0.21743 0.3476
3288.907 0.3712 0.3119 0.3461 0.3139 0.2618 0.2988 0.25003 0.22773 0.22431 0.22267
3308.197 0.24482 0.20006 0.1308 0.20272 0.294 0.21104 0.11 0.26278 0.3527 0.26527
3327.487 0.19536 0.1384 0.1389 0.17412 0.1517 0.0888 0.041 0.0882 0.0819 0
3346.777 0.051 0.1642 0.22528 0.19229 0.184084 0.18825 0.18731 0.1279 0.0814 0.1629
3366.066 0.21143 0.2126 0.158 0.16922 0.2328 0.1552 0.068 0.135 0.3171 0.301
3385.356 0.3365 0.3312 0.22711 0.19267 0.1466 0.26631 0.3422 0.23667 0.2194 0.3771
3404.646 0.4454 0.3031 0.3008 0.4958 0.5384 0.4309 0.4817 0.5706 0.6526 0.7094
3423.936 0.702 0.6744 0.5867 0.603 0.7462 0.8848 0.8525 0.8392 0.8626 0.9358
3443.225 1.0401 1.0377 1.0571 1.1591 1.247 1.287 1.267 1.1589 1.257 1.367
3462.515 1.337 1.217 1.177 1.1656 1.164 1.307 1.307 1.257 1.227 1.297
3481.805 1.257 1.1545 1.1486 1.0458 0.9662 1.0345 1.1151 1.1161 1.0289 0.9213
3501.095 0.8634 0.9907 1.197 1.207 1.197 1.1714 1.1119 1.0875 1.1559 1.307
3520.385 1.407 1.457 1.457 1.597 1.747 1.767 1.797 1.857 1.987 2.027
3539.674 2.137 2.407 2.617 2.857 3.257 3.887 4.787 6.057 7.947 10.327
3558.964 13.287 16.747 20.177 23.377 25.777 27.137 27.987 29.037 31.147 33.617
3578.254 33.517 30.997 29.457 28.967 27.947 25.927 22.957 19.387 15.597 12.067
3597.544 9.067 6.647 4.767 3.527 2.737 2.187 1.807 1.567 1.457 1.357
3616.833 1.1547 1.0131 0.8971 0.8515 0.8893 0.7644 0.6822 0.7186 0.6977 0.5741
3636.123 0.4978 0.5363 0.5603 0.4942 0.473 0.5616 0.5148 0.5328 0.6303 0.5259
3655.413 0.4141 0.4364 0.4362 0.4137 0.4203 0.3513 0.2861 0.3247 0.4026 0.4014
3674.703 0.304 0.27412 0.23878 0.17259 0.3311 0.3172 0.20798 0.3463 0.4152 0.3849
3693.993 0.339 0.26243 0.3017 0.2958 0.22544 0.184337 0.284 0.2867 0.1078 0.1511
3713.282 0.19266 0.20601 0.22514 0.21163 0.20837 0.17521 0.1433 0.147 0.21003 0.2832
3732.572 0.2999 0.2838 0.2977 0.3714 0.3312 0.23309 0.3043 0.2952 0.19888 0.24717
3751.862 0.2907 0.3105 0.3087 0.25665 0.20748 0.21862 0.26379 0.2435 0.2068 0.2799
3771.152 0.2956 0.25238 0.24561 0.24968 0.20335 0.1582 0.1431 0.1342 0.0886 0.1487
3790.441 0.21665 0.24475 0.25296 0.21777 0.27112 0.3304 0.402 0.3904 0.3711 0.2253
3809.731 0.2642 0.3992 0.3272 0.3271 0.2946 0.3265 0.312 0.25749 0.3142 0.21352
3829.021 0.1213 0.185768 0.3347 0.3253 0.3187 0.3653 0.21845 0.1413 0.25686 0.3847
3848.311 0.3722 0.3174 0.2839 0.25147 0.2986 0.24627 0.0798 0.143 0.22792 0.303
3867.601 0.3251 0.26909 0.27231 0.20048 0.1077 0.1494 0.1472 0.21443 0.352 0.23686
3886.890 0.20739 0.22665 0.21552 0.25248 0.26835 0.3412 0.22941 0.066 0.0951 0.1038
3906.180 0.185554 0.20692 0.21237 0.3909 0.2968 0.25425 0.3197 0.21876 0.21324 0.24109
3925.470 0.1643 0.1398 0.27485 0.3192 0.27656 0.0911 0.061 0.1326 0.001 0.1402
3944.760 0.3246 0.3241 0.18865 0.1195 0.27524 0.3734 0.3475 0.3024 0.3129 0.3428
3964.049 0.3299 0.1557 0.1052 0.1329 0.0894 0.1232 0.19588 0.19388 0.20493 0.26926
3983.339 0.25201 0.1194 0.183096 0.4561 0.4283 0.3046 0.3736 0.3405 0.26854 0.372
##END=
