##TITLE=3-Hexyne
##JCAMP-DX=4.24
##DATA TYPE=INFRARED SPECTRUM
##ORIGIN=NIST Mass Spectrometry Data Center
##OWNER=NIST Standard Reference Data Program
Collection (C) 2018 copyright by the U.S. Secretary of Commerce
on behalf of the United States of America. All rights reserved.
##CAS REGISTRY NO=928-49-4
##MOLFORM=C 6 H 10
##$NIST SOURCE=MSDC-IR
##SPECTROMETER/DATA SYSTEM=HP-GC/MS/IRD
##STATE=gas
##XUNITS=1/CM
##YUNITS=ABSORBANCE
##XFACTOR=1.0
##YFACTOR=0.000003400
##DELTAX=4.0
##FIRSTX=550.0
##LASTX=3846.0
##FIRSTY=0.000394
##MAXX=3846
##MINX=550
##MAXY=0.034
##MINY=0
##NPOINTS=825
##XYDATA=(X++(Y..Y))
550.0 116 93 70 101 105 112 129 121 114 109
590.0 125 116 133 150 140 161 179 185 173 166
630.0 171 164 162 136 126 130 104 75 30 45
670.0 152 134 43 37 52 62 44 30 20 0
710.0 1 14 2 4 30 38 22 17 31 40
750.0 46 49 58 75 79 103 114 110 125 127
790.0 115 121 120 101 93 91 78 67 49 24
830.0 20 17 18 17 9 10 15 9 14 27
870.0 32 31 30 23 25 30 36 52 69 74
910.0 87 100 88 74 60 42 27 16 10 24
950.0 29 36 49 46 47 52 46 47 60 61
990.0 40 25 24 34 41 41 50 63 71 67
1030.0 86 125 178 253 330 405 457 486 497 493
1070.0 479 458 425 387 362 336 289 240 193 158
1110.0 135 108 92 96 96 89 92 115 136 135
1150.0 139 132 118 115 118 115 110 109 96 90
1190.0 93 93 91 96 104 97 92 101 113 108
1230.0 103 105 114 118 116 121 124 133 145 157
1270.0 187 206 228 269 330 430 588 841 1242 1866
1310.0 2753 3714 4314 4383 4248 4044 3377 2263 1335 823
1350.0 583 467 401 368 363 382 406 419 438 473
1390.0 504 529 553 569 598 642 700 765 840 924
1430.0 1020 1126 1212 1262 1308 1369 1426 1410 1338 1248
1470.0 1151 1057 954 833 720 627 546 474 416 362
1510.0 315 277 244 212 191 172 161 152 134 117
1550.0 111 112 118 126 130 121 116 127 124 122
1590.0 120 110 102 92 91 96 94 82 81 79
1630.0 67 67 67 62 55 52 55 54 50 51
1670.0 49 46 44 40 34 28 26 33 36 29
1710.0 24 29 30 23 21 24 21 16 17 17
1750.0 14 11 10 8 9 13 14 12 11 11
1790.0 15 18 17 24 24 19 22 26 27 27
1830.0 26 27 30 38 41 41 49 49 52 60
1870.0 58 57 52 46 48 33 23 21 21 25
1910.0 22 16 14 10 13 18 14 16 20 18
1950.0 8 7 11 6 4 0 3 11 8 6
1990.0 7 11 11 3 7 12 13 16 15 23
2030.0 29 36 43 39 39 41 40 39 30 18
2070.0 12 10 9 2 0 10 11 9 10 15
2110.0 18 17 16 14 16 21 18 18 19 24
2150.0 29 21 15 15 17 20 22 15 8 11
2190.0 17 15 13 18 19 22 23 28 33 27
2230.0 20 22 23 32 31 25 20 9 14 18
2270.0 12 15 16 17 20 18 16 17 24 26
2310.0 14 8 15 17 23 27 24 28 36 43
2350.0 42 41 41 42 43 30 25 26 13 0
2390.0 8 18 12 6 10 15 16 22 25 33
2430.0 42 43 42 37 32 28 21 16 9 2
2470.0 7 14 7 0 2 12 25 34 36 34
2510.0 29 30 36 32 25 22 22 22 20 18
2550.0 13 11 12 17 28 33 26 26 32 42
2590.0 48 46 45 44 52 67 79 95 115 124
2630.0 126 126 114 92 63 41 28 18 11 9
2670.0 14 13 11 14 22 30 33 41 48 50
2710.0 63 81 89 104 127 144 159 185 206 224
2750.0 237 235 231 229 233 234 235 236 231 238
2790.0 256 274 288 312 348 389 438 495 566 658
2830.0 767 889 1019 1181 1395 1655 1958 2233 2466 2699
2870.0 2959 3294 3713 4113 4334 4505 4808 5061 5149 5181
2910.0 5282 5471 5725 6021 6371 6867 7609 8437 8855 8765
2950.0 8634 8541 8132 7608 7654 8554 9651 10000 9848 9808
2990.0 9179 7469 5708 4528 3775 3216 2723 2282 1890 1559
3030.0 1275 1036 851 716 615 529 471 437 413 399
3070.0 385 373 377 394 408 412 409 405 409 411
3110.0 389 368 357 341 322 301 281 254 236 230
3150.0 217 200 197 202 204 200 198 192 193 189
3190.0 178 177 161 149 126 109 98 76 62 59
3230.0 60 53 49 48 48 48 43 46 49 38
3270.0 28 35 42 39 33 34 40 43 33 18
3310.0 25 32 28 31 23 23 34 39 46 45
3350.0 47 51 48 48 43 43 56 55 41 30
3390.0 26 22 22 26 28 32 26 21 24 17
3430.0 32 53 48 42 30 39 54 59 48 25
3470.0 15 11 23 26 19 28 37 34 20 23
3510.0 24 25 30 23 6 0 3 4 10 10
3550.0 3 0 12 22 15 4 4 11 24 31
3590.0 26 17 9 17 25 17 12 13 20 27
3630.0 23 18 27 32 30 22 13 10 17 20
3670.0 20 32 34 28 31 29 24 26 27 32
3710.0 40 40 27 18 23 18 21 32 15 25
3750.0 38 41 48 49 53 44 43 46 36 26
3790.0 29 42 54 44 31 34 28 30 30 18
3830.0 27 31 18 16 16
##END=
